10/15/2024 10:20:40Time	T_hot_in(C)	T_cold_in(C)	T_cold_out(C)	T_hot_out(C)	mdot_cold(kg/s)	ASFASIFUAS(kg/s)	Diferencial_cold(bar)	Diferencial_hot(bar)	mdot_hot(kg/s)	ABS_cold(bar)	ABS_hot(bar)	q_cold(kW)	q_hot(kW)	ASFASYFY	Tau_cold_haste	Re_hot	Re_cold	U_global	PSIG_cold(bar)	R_fouling	PSIG_hot(bar)	PSID_hot(bar)	m_dot_hot	PSID_cold(bar)	m_dot_cold
1.73935  	0.00000  	0.00000  	0.00000  	0.00000  	-1.18512  	-0.20833  	-0.86278  	-2.50000  	-3.02442  	-1.25000  	-0.08628  	-0.00000  	-0.00000  	-737.84722  	-254.63905  	-9234.48090  	-3618.55272  	0.00000  	0.00000  	0.00000  	0.00000  	0.00000  	0.00000  	0.00000  
2.74267  	22.96267  	49.57946  	49.36134  	33.05660  	-1.18512  	0.01962  	0.41011  	0.39782  	-3.02442  	0.06305  	-0.08561  	-127.65114  	-1.08132  	117.41296  	121.04011  	-19294.52265  	-11386.74870  	0.00464  	0.00003  	0.00420  	0.00438  	0.00586  	0.00000  	0.00000  
3.74399  	22.96301  	49.58186  	49.36316  	33.05296  	-1.18512  	0.02022  	0.41126  	0.39910  	-3.02442  	0.06239  	-0.08568  	-127.60069  	-1.08421  	117.79135  	121.37790  	-19293.81279  	-11387.14224  	0.00464  	0.00003  	0.00420  	0.00439  	0.00587  	0.00000  	0.00000  
4.74728  	22.96398  	49.58405  	49.36495  	33.04849  	-1.18512  	0.02055  	0.41206  	0.39726  	-3.02442  	0.06255  	-0.08569  	-127.53201  	-1.08618  	117.24833  	121.61552  	-19293.05835  	-11387.51335  	0.00464  	0.00003  	0.00420  	0.00439  	0.00587  	0.00000  	0.00000  
5.75062  	22.96355  	49.58605  	49.36595  	33.04292  	-1.18512  	0.01948  	0.40965  	0.39670  	-3.02442  	0.06316  	-0.08568  	-127.46691  	-1.09115  	117.08019  	120.90249  	-19291.76816  	-11387.79395  	0.00463  	0.00003  	0.00420  	0.00437  	0.00586  	0.00000  	0.00000  
6.75194  	22.96354  	49.58746  	49.36686  	33.03775  	-1.18512  	0.02049  	0.40774  	0.39674  	-3.02442  	0.06344  	-0.08564  	-127.40162  	-1.09360  	117.09284  	120.34007  	-19290.65080  	-11388.00937  	0.00463  	0.00003  	0.00420  	0.00439  	0.00585  	0.00000  	0.00000  
7.75523  	22.96288  	49.59079  	49.36962  	33.03298  	-1.18512  	0.01974  	0.40767  	0.39450  	-3.02442  	0.06282  	-0.08569  	-127.34968  	-1.09643  	116.43329  	120.31996  	-19289.48070  	-11388.57730  	0.00463  	0.00003  	0.00420  	0.00438  	0.00585  	0.00000  	0.00000  
8.75758  	22.96179  	49.59200  	49.37198  	33.02778  	-1.18512  	0.02027  	0.40495  	0.39575  	-3.02442  	0.06180  	-0.08575  	-127.29769  	-1.09074  	116.80258  	119.51683  	-19288.12639  	-11388.91065  	0.00463  	0.00002  	0.00420  	0.00439  	0.00584  	0.00000  	0.00000  
9.75890  	22.96131  	49.59435  	49.37392  	33.02233  	-1.18512  	0.01974  	0.40494  	0.39350  	-3.02442  	0.06211  	-0.08568  	-127.23487  	-1.09277  	116.13677  	119.51385  	-19286.85145  	-11389.30937  	0.00463  	0.00003  	0.00420  	0.00438  	0.00584  	0.00000  	0.00000  
10.76222  	22.96067  	49.59682  	49.37543  	33.01831  	-1.18512  	0.01989  	0.40411  	0.39386  	-3.02442  	0.06102  	-0.08566  	-127.19210  	-1.09750  	116.24406  	119.26987  	-19285.84771  	-11389.68159  	0.00463  	0.00003  	0.00420  	0.00438  	0.00584  	0.00000  	0.00000  
11.76553  	22.96036  	49.59845  	49.37882  	33.01479  	-1.18512  	0.01904  	0.40329  	0.39316  	-3.02442  	0.06204  	-0.08567  	-127.15148  	-1.08878  	116.03792  	119.02640  	-19285.02260  	-11390.14928  	0.00463  	0.00003  	0.00420  	0.00437  	0.00583  	0.00000  	0.00000  
12.76685  	22.95946  	49.60013  	49.38166  	33.01303  	-1.18512  	0.01939  	0.40212  	0.39022  	-3.02442  	0.06227  	-0.08563  	-127.14064  	-1.08309  	115.17040  	118.68060  	-19284.45182  	-11390.57082  	0.00462  	0.00003  	0.00420  	0.00437  	0.00583  	0.00000  	0.00000  
13.77017  	22.95769  	49.60288  	49.38283  	33.01178  	-1.18512  	0.02025  	0.40141  	0.38646  	-3.02442  	0.06350  	-0.08576  	-127.14722  	-1.09093  	114.05897  	118.47059  	-19283.80155  	-11390.93618  	0.00462  	0.00002  	0.00420  	0.00439  	0.00582  	0.00000  	0.00000  
14.77348  	22.95741  	49.60541  	49.38479  	33.01014  	-1.18512  	0.01951  	0.39872  	0.38852  	-3.02442  	0.06233  	-0.08564  	-127.12996  	-1.09372  	114.66774  	117.67702  	-19283.38597  	-11391.35493  	0.00462  	0.00003  	0.00420  	0.00437  	0.00581  	0.00000  	0.00000  
15.77481  	22.95587  	49.60732  	49.38670  	33.00948  	-1.18512  	0.01899  	0.39804  	0.38761  	-3.02442  	0.06131  	-0.08570  	-127.14123  	-1.09373  	114.39924  	117.47723  	-19282.91341  	-11391.71035  	0.00462  	0.00003  	0.00420  	0.00436  	0.00581  	0.00000  	0.00000  
16.77710  	22.95456  	49.60936  	49.38983  	33.01022  	-1.18512  	0.01979  	0.39681  	0.38108  	-3.02442  	0.06253  	-0.08574  	-127.16700  	-1.08829  	112.47245  	117.11352  	-19282.79060  	-11392.19246  	0.00461  	0.00003  	0.00420  	0.00438  	0.00580  	0.00000  	0.00000  
17.78044  	22.95376  	49.61188  	49.39183  	33.01247  	-1.18512  	0.01917  	0.39476  	0.38041  	-3.02442  	0.06279  	-0.08569  	-127.20563  	-1.09092  	112.27362  	116.50909  	-19283.10333  	-11392.61443  	0.00461  	0.00003  	0.00420  	0.00437  	0.00579  	0.00000  	0.00000  
18.78176  	22.95285  	49.61376  	49.39350  	33.01418  	-1.18512  	0.01928  	0.39166  	0.38157  	-3.02442  	0.06278  	-0.08568  	-127.23875  	-1.09192  	112.61543  	115.59385  	-19283.27672  	-11392.94544  	0.00461  	0.00003  	0.00420  	0.00437  	0.00578  	0.00000  	0.00000  
19.78209  	22.95138  	49.61592  	49.39565  	33.01776  	-1.18512  	0.01930  	0.39159  	0.38039  	-3.02442  	0.06127  	-0.08564  	-127.30264  	-1.09199  	112.26841  	115.57370  	-19283.72838  	-11393.34677  	0.00461  	0.00003  	0.00420  	0.00437  	0.00578  	0.00000  	0.00000  
20.78440  	22.95047  	49.61773  	49.39780  	33.02174  	-1.18512  	0.01932  	0.38886  	0.36973  	-3.02442  	0.06268  	-0.08574  	-127.36440  	-1.09031  	109.12316  	114.76815  	-19284.38885  	-11393.71671  	0.00459  	0.00002  	0.00420  	0.00437  	0.00577  	0.00000  	0.00000  
21.78573  	22.94876  	49.62034  	49.40036  	33.02636  	-1.18512  	0.01860  	0.38627  	0.37609  	-3.02442  	0.06330  	-0.08572  	-127.44455  	-1.09055  	110.99922  	114.00275  	-19285.01715  	-11394.19777  	0.00460  	0.00003  	0.00420  	0.00436  	0.00575  	0.00000  	0.00000  
22.78705  	22.94695  	49.62305  	49.40193  	33.03197  	-1.18512  	0.02068  	0.38456  	0.36686  	-3.02442  	0.06221  	-0.08571  	-127.53839  	-1.09620  	108.27511  	113.49905  	-19285.83466  	-11394.59752  	0.00459  	0.00003  	0.00420  	0.00440  	0.00575  	0.00000  	0.00000  
23.78937  	22.94718  	49.62504  	49.40447  	33.03916  	-1.18512  	0.01941  	0.38657  	0.37604  	-3.02442  	0.06150  	-0.08573  	-127.62636  	-1.09344  	110.98354  	114.09265  	-19287.43202  	-11395.02016  	0.00460  	0.00003  	0.00420  	0.00437  	0.00576  	0.00000  	0.00000  
24.79268  	22.94553  	49.62715  	49.40749  	33.04648  	-1.18512  	0.01840  	0.38998  	0.37543  	-3.02442  	0.06250  	-0.08566  	-127.73976  	-1.08896  	110.80381  	115.09694  	-19288.65163  	-11395.49863  	0.00460  	0.00003  	0.00420  	0.00435  	0.00577  	0.00000  	0.00000  
25.79399  	22.94516  	49.62933  	49.40943  	33.05345  	-1.18512  	0.01902  	0.39390  	0.37912  	-3.02442  	0.06136  	-0.08565  	-127.83267  	-1.09015  	111.89162  	116.25667  	-19290.07459  	-11395.88234  	0.00461  	0.00003  	0.00420  	0.00437  	0.00579  	0.00000  	0.00000  
26.79729  	22.94501  	49.63105  	49.41189  	33.06063  	-1.18512  	0.01808  	0.39686  	0.37907  	-3.02442  	0.06072  	-0.08575  	-127.92536  	-1.08648  	111.87721  	117.12989  	-19291.58849  	-11396.27161  	0.00461  	0.00002  	0.00419  	0.00435  	0.00580  	0.00000  	0.00000  
27.79964  	22.94640  	49.63441  	49.41438  	33.06672  	-1.18512  	0.01941  	0.39870  	0.38656  	-3.02442  	0.06324  	-0.08565  	-127.98477  	-1.09080  	114.09002  	117.67290  	-19293.19868  	-11396.81790  	0.00462  	0.00003  	0.00420  	0.00437  	0.00581  	0.00000  	0.00000  
28.80093  	22.94684  	49.63668  	49.41709  	33.07156  	-1.18512  	0.01929  	0.40130  	0.38961  	-3.02442  	0.06259  	-0.08572  	-128.04040  	-1.08860  	114.98816  	118.43955  	-19294.33357  	-11397.28134  	0.00462  	0.00003  	0.00420  	0.00437  	0.00582  	0.00000  	0.00000  
29.80328  	22.94793  	49.63810  	49.41967  	33.07426  	-1.18512  	0.02034  	0.40334  	0.38879  	-3.02442  	0.06241  	-0.08569  	-128.06069  	-1.08287  	114.74644  	119.04266  	-19295.15199  	-11397.65468  	0.00462  	0.00003  	0.00420  	0.00439  	0.00583  	0.00000  	0.00000  
30.80660  	22.94864  	49.64078  	49.42167  	33.07552  	-1.18512  	0.01994  	0.40447  	0.39324  	-3.02442  	0.06152  	-0.08564  	-128.06774  	-1.08621  	116.06118  	119.37526  	-19295.57475  	-11398.09142  	0.00463  	0.00003  	0.00420  	0.00438  	0.00584  	0.00000  	0.00000  
31.80789  	22.95002  	49.64247  	49.42422  	33.07615  	-1.18512  	0.01918  	0.40754  	0.39560  	-3.02442  	0.06285  	-0.08567  	-128.05821  	-1.08198  	116.75828  	120.28173  	-19296.00827  	-11398.48679  	0.00463  	0.00003  	0.00420  	0.00437  	0.00585  	0.00000  	0.00000  
32.81120  	22.95120  	49.64483  	49.42639  	33.07468  	-1.18512  	0.01958  	0.40610  	0.39655  	-3.02442  	0.06051  	-0.08570  	-128.02471  	-1.08287  	117.03699  	119.85506  	-19295.94740  	-11398.90895  	0.00463  	0.00003  	0.00419  	0.00438  	0.00585  	0.00000  	0.00000  
33.81355  	22.95100  	49.64733  	49.42857  	33.07265  	-1.18512  	0.02067  	0.40907  	0.39279  	-3.02442  	0.06176  	-0.08573  	-128.00153  	-1.08451  	115.92652  	120.73126  	-19295.46425  	-11399.34498  	0.00463  	0.00003  	0.00420  	0.00440  	0.00586  	0.00000  	0.00000  
34.81487  	22.95224  	49.65016  	49.42974  	33.07038  	-1.18512  	0.01860  	0.40902  	0.40008  	-3.02442  	0.06242  	-0.08560  	-127.95722  	-1.09271  	118.08055  	120.71761  	-19295.24415  	-11399.71902  	0.00464  	0.00003  	0.00420  	0.00436  	0.00586  	0.00000  	0.00000  
35.81816  	22.95346  	49.65092  	49.43149  	33.06571  	-1.18512  	0.01964  	0.41077  	0.39672  	-3.02442  	0.06136  	-0.08565  	-127.88266  	-1.08785  	117.08862  	121.23391  	-19294.50227  	-11399.95223  	0.00463  	0.00003  	0.00420  	0.00438  	0.00587  	0.00000  	0.00000  
36.82051  	22.95378  	49.65531  	49.43339  	33.06060  	-1.18512  	0.01937  	0.41142  	0.40169  	-3.02442  	0.06164  	-0.08569  	-127.81401  	-1.10018  	118.55390  	121.42698  	-19293.46824  	-11400.53877  	0.00464  	0.00003  	0.00420  	0.00437  	0.00587  	0.00000  	0.00000  
37.82180  	22.95505  	49.65679  	49.43591  	33.05687  	-1.18512  	0.02010  	0.41026  	0.39993  	-3.02442  	0.06169  	-0.08565  	-127.75085  	-1.09500  	118.03636  	121.08510  	-19292.93970  	-11400.91259  	0.00464  	0.00003  	0.00420  	0.00439  	0.00587  	0.00000  	0.00000  
38.82315  	22.95495  	49.65882  	49.43745  	33.05109  	-1.18512  	0.01947  	0.40923  	0.39641  	-3.02442  	0.06060  	-0.08572  	-127.67897  	-1.09746  	116.99747  	120.78075  	-19291.67416  	-11401.24459  	0.00463  	0.00003  	0.00419  	0.00437  	0.00586  	0.00000  	0.00000  
39.82647  	22.95521  	49.66070  	49.43887  	33.04594  	-1.18512  	0.01868  	0.40910  	0.39666  	-3.02442  	0.06182  	-0.08565  	-127.61047  	-1.09969  	117.07014  	120.74082  	-19290.62085  	-11401.55311  	0.00463  	0.00003  	0.00420  	0.00436  	0.00586  	0.00000  	0.00000  
40.82779  	22.95494  	49.66447  	49.44144  	33.04120  	-1.18512  	0.01953  	0.40613  	0.39394  	-3.02442  	0.06308  	-0.08567  	-127.55393  	-1.10570  	116.26631  	119.86508  	-19289.54194  	-11402.14397  	0.00463  	0.00003  	0.00420  	0.00437  	0.00585  	0.00000  	0.00000  
41.83011  	22.95506  	49.66641  	49.44296  	33.03748  	-1.18512  	0.02093  	0.40674  	0.39203  	-3.02442  	0.06230  	-0.08570  	-127.50549  	-1.10778  	115.70325  	120.04608  	-19288.76728  	-11402.46676  	0.00463  	0.00003  	0.00420  	0.00440  	0.00585  	0.00000  	0.00000  
42.83243  	22.95522  	49.66863  	49.44582  	33.03264  	-1.18512  	0.02015  	0.40539  	0.39534  	-3.02442  	0.06181  	-0.08572  	-127.44225  	-1.10455  	116.67887  	119.64692  	-19287.76017  	-11402.93984  	0.00463  	0.00003  	0.00420  	0.00439  	0.00584  	0.00000  	0.00000  
43.83574  	22.95469  	49.67096  	49.44799  	33.02908  	-1.18512  	0.02008  	0.40555  	0.38987  	-3.02442  	0.06228  	-0.08569  	-127.40387  	-1.10533  	115.06436  	119.69428  	-19286.87720  	-11403.35990  	0.00462  	0.00003  	0.00420  	0.00439  	0.00584  	0.00000  	0.00000  
44.83706  	22.95420  	49.67267  	49.45120  	33.02654  	-1.18512  	0.02202  	0.40317  	0.38888  	-3.02442  	0.06105  	-0.08563  	-127.37791  	-1.09790  	114.77253  	118.99007  	-19286.22557  	-11403.81892  	0.00462  	0.00003  	0.00420  	0.00442  	0.00583  	0.00000  	0.00000  
45.84038  	22.95344  	49.67473  	49.45341  	33.02504  	-1.18512  	0.01923  	0.40209  	0.38979  	-3.02442  	0.06316  	-0.08567  	-127.36867  	-1.09721  	115.04085  	118.67369  	-19285.73933  	-11404.21754  	0.00462  	0.00003  	0.00420  	0.00437  	0.00583  	0.00000  	0.00000  
46.84370  	22.95272  	49.67719  	49.45472  	33.02398  	-1.18512  	0.02038  	0.40057  	0.38583  	-3.02442  	0.06304  	-0.08567  	-127.36435  	-1.10290  	113.87232  	118.22379  	-19285.35566  	-11404.56894  	0.00462  	0.00003  	0.00420  	0.00439  	0.00582  	0.00000  	0.00000  
47.84502  	22.95248  	49.68024  	49.45700  	33.02360  	-1.18512  	0.02000  	0.39939  	0.38695  	-3.02442  	0.06153  	-0.08565  	-127.36255  	-1.10670  	114.20379  	117.87679  	-19285.22282  	-11405.06631  	0.00462  	0.00003  	0.00420  	0.00438  	0.00582  	0.00000  	0.00000  
48.84833  	22.95151  	49.68202  	49.45980  	33.02405  	-1.18512  	0.01964  	0.39758  	0.38651  	-3.02442  	0.06192  	-0.08566  	-127.38040  	-1.10163  	114.07343  	117.34248  	-19285.11151  	-11405.49369  	0.00462  	0.00003  	0.00420  	0.00438  	0.00581  	0.00000  	0.00000  
49.85165  	22.95082  	49.68421  	49.46144  	33.02412  	-1.18512  	0.01919  	0.39669  	0.38269  	-3.02442  	0.06275  	-0.08572  	-127.39011  	-1.10435  	112.94800  	117.07898  	-19284.97973  	-11405.85008  	0.00461  	0.00003  	0.00420  	0.00437  	0.00580  	0.00000  	0.00000  
50.85297  	22.94940  	49.68618  	49.46284  	33.02640  	-1.18512  	0.02048  	0.39420  	0.38146  	-3.02442  	0.06283  	-0.08576  	-127.43686  	-1.10720  	112.58381  	116.34307  	-19285.16245  	-11406.16377  	0.00461  	0.00002  	0.00420  	0.00439  	0.00579  	0.00000  	0.00000  
51.85626  	22.94958  	49.68942  	49.46654  	33.02842  	-1.18512  	0.02037  	0.39338  	0.38062  	-3.02442  	0.06387  	-0.08571  	-127.46017  	-1.10491  	112.33611  	116.10088  	-19285.63507  	-11406.81183  	0.00461  	0.00003  	0.00420  	0.00439  	0.00579  	0.00000  	0.00000  
52.85957  	22.94923  	49.69229  	49.46962  	33.03189  	-1.18512  	0.01880  	0.39103  	0.37998  	-3.02442  	0.06035  	-0.08567  	-127.50851  	-1.10390  	112.14691  	115.40784  	-19286.30885  	-11407.36704  	0.00461  	0.00003  	0.00419  	0.00436  	0.00578  	0.00000  	0.00000  
53.86090  	22.94822  	49.69408  	49.47239  	33.03604  	-1.18512  	0.01907  	0.38947  	0.37611  	-3.02442  	0.06037  	-0.08568  	-127.57369  	-1.09903  	111.00439  	114.94849  	-19286.98574  	-11407.79245  	0.00460  	0.00003  	0.00419  	0.00437  	0.00577  	0.00000  	0.00000  
54.86421  	22.94633  	49.69617  	49.47392  	33.04127  	-1.18512  	0.01951  	0.38762  	0.37245  	-3.02442  	0.06257  	-0.08575  	-127.66373  	-1.10176  	109.92520  	114.40240  	-19287.70428  	-11408.12977  	0.00460  	0.00002  	0.00420  	0.00437  	0.00576  	0.00000  	0.00000  
55.86756  	22.94720  	49.69804  	49.47738  	33.04734  	-1.18512  	0.01956  	0.38478  	0.37311  	-3.02442  	0.06402  	-0.08565  	-127.72952  	-1.09389  	110.11990  	113.56272  	-19289.19994  	-11408.62708  	0.00460  	0.00003  	0.00420  	0.00438  	0.00575  	0.00000  	0.00000  
56.86888  	22.94631  	49.70154  	49.48004  	33.05450  	-1.18512  	0.01872  	0.38560  	0.37516  	-3.02442  	0.06239  	-0.08571  	-127.83132  	-1.09807  	110.72468  	113.80531  	-19290.55004  	-11409.20194  	0.00460  	0.00003  	0.00420  	0.00436  	0.00575  	0.00000  	0.00000  
57.87219  	22.94556  	49.70350  	49.48218  	33.06145  	-1.18512  	0.01955  	0.38867  	0.37375  	-3.02442  	0.06208  	-0.08564  	-127.92864  	-1.09719  	110.30851  	114.71141  	-19291.88216  	-11409.58374  	0.00460  	0.00003  	0.00420  	0.00438  	0.00577  	0.00000  	0.00000  
58.87451  	22.94514  	49.70591  	49.48533  	33.06836  	-1.18512  	0.01908  	0.39352  	0.38104  	-3.02442  	0.06293  	-0.08567  	-128.02149  	-1.09350  	112.45835  	116.14161  	-19293.28037  	-11410.10322  	0.00461  	0.00003  	0.00420  	0.00437  	0.00579  	0.00000  	0.00000  
59.87583  	22.94552  	49.70815  	49.48832  	33.07766  	-1.18512  	0.02011  	0.39555  	0.38211  	-3.02442  	0.06108  	-0.08575  	-128.13414  	-1.08979  	112.77598  	116.74354  	-19295.36568  	-11410.58966  	0.00461  	0.00002  	0.00420  	0.00439  	0.00580  	0.00000  	0.00000  
60.87915  	22.94743  	49.70983  	49.48950  	33.08429  	-1.18512  	0.01970  	0.39733  	0.38572  	-3.02442  	0.06153  	-0.08564  	-128.19385  	-1.09227  	113.84073  	117.26862  	-19297.20461  	-11410.85706  	0.00462  	0.00003  	0.00420  	0.00438  	0.00581  	0.00000  	0.00000  
61.88147  	22.94799  	49.71169  	49.49183  	33.09049  	-1.18512  	0.02032  	0.39974  	0.38691  	-3.02442  	0.06142  	-0.08564  	-128.26530  	-1.08995  	114.19231  	117.97757  	-19298.66002  	-11411.24760  	0.00462  	0.00003  	0.00420  	0.00439  	0.00582  	0.00000  	0.00000  
62.88279  	22.94953  	49.71349  	49.49407  	33.09383  	-1.18512  	0.01956  	0.40266  	0.39111  	-3.02442  	0.06105  	-0.08567  	-128.28802  	-1.08780  	115.43280  	118.84129  	-19299.71031  	-11411.62481  	0.00463  	0.00003  	0.00420  	0.00438  	0.00583  	0.00000  	0.00000  
63.88312  	22.95031  	49.71687  	49.49666  	33.09697  	-1.18512  	0.01908  	0.40402  	0.39027  	-3.02442  	0.06302  	-0.08570  	-128.31782  	-1.09165  	115.18332  	119.24157  	-19300.55267  	-11412.18214  	0.00462  	0.00003  	0.00420  	0.00437  	0.00584  	0.00000  	0.00000  
64.88543  	22.95275  	49.71929  	49.49821  	33.09758  	-1.18512  	0.01966  	0.40625  	0.39309  	-3.02442  	0.06187  	-0.08567  	-128.29460  	-1.09599  	116.01483  	119.89972  	-19301.21164  	-11412.55148  	0.00463  	0.00003  	0.00420  	0.00438  	0.00585  	0.00000  	0.00000  
65.88875  	22.95339  	49.72142  	49.50046  	33.09776  	-1.18512  	0.01944  	0.40680  	0.39487  	-3.02442  	0.06177  	-0.08570  	-128.28888  	-1.09541  	116.54240  	120.06298  	-19301.38972  	-11412.96071  	0.00463  	0.00003  	0.00420  	0.00437  	0.00585  	0.00000  	0.00000  
66.89007  	22.95409  	49.72330  	49.50312  	33.09749  	-1.18512  	0.02017  	0.40770  	0.39561  	-3.02442  	0.06453  	-0.08576  	-128.27652  	-1.09153  	116.75977  	120.32793  	-19301.48089  	-11413.38417  	0.00463  	0.00002  	0.00421  	0.00439  	0.00585  	0.00000  	0.00000  
67.89339  	22.95626  	49.72573  	49.50479  	33.09456  	-1.18512  	0.01898  	0.40848  	0.39871  	-3.02442  	0.06195  	-0.08572  	-128.21204  	-1.09529  	117.67628  	120.55903  	-19301.31583  	-11413.76694  	0.00464  	0.00003  	0.00420  	0.00436  	0.00586  	0.00000  	0.00000  
68.89667  	22.95762  	49.72792  	49.50683  	33.09141  	-1.18512  	0.01955  	0.40916  	0.40036  	-3.02442  	0.06265  	-0.08564  	-128.15498  	-1.09606  	118.16169  	120.75831  	-19300.93117  	-11414.16101  	0.00464  	0.00003  	0.00420  	0.00438  	0.00586  	0.00000  	0.00000  
69.89802  	22.95918  	49.73061  	49.50842  	33.08769  	-1.18512  	0.01966  	0.41055  	0.39674  	-3.02442  	0.06300  	-0.08573  	-128.08822  	-1.10149  	117.09231  	121.16963  	-19300.46663  	-11414.55976  	0.00463  	0.00003  	0.00420  	0.00438  	0.00587  	0.00000  	0.00000  
70.90131  	22.95986  	49.73250  	49.51080  	33.08387  	-1.18512  	0.02117  	0.41196  	0.39750  	-3.02442  	0.06384  	-0.08566  	-128.03146  	-1.09907  	117.31717  	121.58625  	-19299.78983  	-11414.95831  	0.00464  	0.00003  	0.00420  	0.00441  	0.00587  	0.00000  	0.00000  
71.90465  	22.96081  	49.73502  	49.51245  	33.07955  	-1.18512  	0.02166  	0.40895  	0.39794  	-3.02442  	0.06191  	-0.08565  	-127.96469  	-1.10335  	117.44742  	120.69816  	-19299.06362  	-11415.34815  	0.00464  	0.00003  	0.00420  	0.00442  	0.00586  	0.00000  	0.00000  
72.90597  	22.96197  	49.73711  	49.51546  	33.07455  	-1.18512  	0.01981  	0.40940  	0.39582  	-3.02442  	0.06245  	-0.08566  	-127.88688  	-1.09880  	116.82118  	120.82860  	-19298.23656  	-11415.82346  	0.00463  	0.00003  	0.00420  	0.00438  	0.00586  	0.00000  	0.00000  
73.90929  	22.96230  	49.73947  	49.51809  	33.06984  	-1.18512  	0.01944  	0.40708  	0.39352  	-3.02442  	0.06238  	-0.08568  	-127.82307  	-1.09748  	116.14253  	120.14444  	-19297.29546  	-11416.28915  	0.00463  	0.00003  	0.00420  	0.00437  	0.00585  	0.00000  	0.00000  
74.91261  	22.96311  	49.74219  	49.52164  	33.06506  	-1.18512  	0.01990  	0.40755  	0.39650  	-3.02442  	0.06150  	-0.08572  	-127.75234  	-1.09335  	117.02383  	120.28299  	-19296.44000  	-11416.87479  	0.00463  	0.00003  	0.00420  	0.00438  	0.00585  	0.00000  	0.00000  
75.91393  	22.96410  	49.74488  	49.52250  	33.06120  	-1.18512  	0.02121  	0.40666  	0.39426  	-3.02442  	0.06285  	-0.08569  	-127.69106  	-1.10244  	116.36258  	120.02132  	-19295.82230  	-11417.20586  	0.00463  	0.00003  	0.00420  	0.00441  	0.00585  	0.00000  	0.00000  
76.91725  	22.96328  	49.74659  	49.52377  	33.05733  	-1.18512  	0.01892  	0.40487  	0.39531  	-3.02442  	0.06102  	-0.08564  	-127.65250  	-1.10462  	116.67154  	119.49275  	-19294.81119  	-11417.48351  	0.00463  	0.00003  	0.00420  	0.00436  	0.00584  	0.00000  	0.00000  
77.92056  	22.96357  	49.74852  	49.52553  	33.05519  	-1.18512  	0.01942  	0.40380  	0.39567  	-3.02442  	0.06228  	-0.08568  	-127.62169  	-1.10543  	116.77896  	119.17699  	-19294.41330  	-11417.82764  	0.00463  	0.00003  	0.00420  	0.00437  	0.00584  	0.00000  	0.00000  
78.92188  	22.96351  	49.75061  	49.52825  	33.05330  	-1.18512  	0.02001  	0.40275  	0.39182  	-3.02442  	0.06186  	-0.08568  	-127.59860  	-1.10235  	115.64177  	118.86763  	-19293.99457  	-11418.27655  	0.00463  	0.00003  	0.00420  	0.00438  	0.00583  	0.00000  	0.00000  
79.92517  	22.96409  	49.75333  	49.52965  	33.05172  	-1.18512  	0.01829  	0.40230  	0.38934  	-3.02442  	0.06189  	-0.08569  	-127.57128  	-1.10885  	114.91013  	118.73382  	-19293.77640  	-11418.66078  	0.00462  	0.00003  	0.00420  	0.00435  	0.00583  	0.00000  	0.00000  
80.92852  	22.96374  	49.75519  	49.53331  	33.05095  	-1.18512  	0.01859  	0.40089  	0.38473  	-3.02442  	0.06239  	-0.08573  	-127.56603  	-1.09995  	113.55026  	118.31729  	-19293.53732  	-11419.17665  	0.00462  	0.00003  	0.00420  	0.00436  	0.00582  	0.00000  	0.00000  
81.92984  	22.96374  	49.75743  	49.53579  	33.05074  	-1.18512  	0.01855  	0.39906  	0.38369  	-3.02442  	0.06158  	-0.08567  	-127.56337  	-1.09875  	113.24188  	117.77752  	-19293.49196  	-11419.61665  	0.00461  	0.00003  	0.00420  	0.00436  	0.00581  	0.00000  	0.00000  
82.93315  	22.96287  	49.75882  	49.53751  	33.05088  	-1.18512  	0.01859  	0.39739  	0.38918  	-3.02442  	0.06240  	-0.08571  	-127.57605  	-1.09710  	114.86203  	117.28537  	-19293.33525  	-11419.90684  	0.00462  	0.00003  	0.00420  	0.00436  	0.00581  	0.00000  	0.00000  
83.93644  	22.96331  	49.76190  	49.54036  	33.05291  	-1.18512  	0.02050  	0.39643  	0.38141  	-3.02442  	0.06284  	-0.08567  	-127.59621  	-1.09827  	112.57019  	117.00182  	-19293.86652  	-11420.45971  	0.00461  	0.00003  	0.00420  	0.00439  	0.00580  	0.00000  	0.00000  
84.93679  	22.96265  	49.76362  	49.54204  	33.05422  	-1.18512  	0.01968  	0.39474  	0.38222  	-3.02442  	0.06106  	-0.08568  	-127.62104  	-1.09845  	112.80847  	116.50381  	-19294.00547  	-11420.77706  	0.00461  	0.00003  	0.00420  	0.00438  	0.00579  	0.00000  	0.00000  
85.93812  	22.96262  	49.76572  	49.54414  	33.05786  	-1.18512  	0.01978  	0.39285  	0.38022  	-3.02442  	0.06192  	-0.08573  	-127.66756  	-1.09848  	112.21768  	115.94403  	-19294.78222  	-11421.16845  	0.00461  	0.00003  	0.00420  	0.00438  	0.00579  	0.00000  	0.00000  
86.94043  	22.96196  	49.76743  	49.54615  	33.06219  	-1.18512  	0.01941  	0.39056  	0.38396  	-3.02442  	0.06213  	-0.08566  	-127.73065  	-1.09701  	113.32049  	115.27072  	-19295.57514  	-11421.51587  	0.00461  	0.00003  	0.00420  	0.00437  	0.00577  	0.00000  	0.00000  
87.94272  	22.96155  	49.77046  	49.54793  	33.06636  	-1.18512  	0.02064  	0.38931  	0.37268  	-3.02442  	0.06176  	-0.08572  	-127.78855  	-1.10318  	109.99209  	114.90007  	-19296.38316  	-11421.96449  	0.00460  	0.00003  	0.00420  	0.00440  	0.00577  	0.00000  	0.00000  
88.94407  	22.96037  	49.77176  	49.55034  	33.07101  	-1.18512  	0.01906  	0.38756  	0.37232  	-3.02442  	0.06061  	-0.08568  	-127.86235  	-1.09765  	109.88557  	114.38298  	-19297.13048  	-11422.31132  	0.00460  	0.00003  	0.00419  	0.00437  	0.00576  	0.00000  	0.00000  
89.94740  	22.96108  	49.77409  	49.55276  	33.07816  	-1.18512  	0.01864  	0.38607  	0.37292  	-3.02442  	0.06172  	-0.08570  	-127.94380  	-1.09723  	110.06351  	113.94383  	-19298.82258  	-11422.75451  	0.00460  	0.00003  	0.00420  	0.00436  	0.00575  	0.00000  	0.00000  
90.95068  	22.96031  	49.77620  	49.55518  	33.08492  	-1.18512  	0.01832  	0.38846  	0.37208  	-3.02442  	0.06228  	-0.08571  	-128.03905  	-1.09570  	109.81553  	114.65079  	-19300.11353  	-11423.17735  	0.00460  	0.00003  	0.00420  	0.00435  	0.00576  	0.00000  	0.00000  
91.95203  	22.96011  	49.77739  	49.55587  	33.09437  	-1.18512  	0.01888  	0.39112  	0.37838  	-3.02442  	0.06194  	-0.08562  	-128.16094  	-1.09818  	111.67518  	115.43460  	-19302.10451  	-11423.35217  	0.00461  	0.00003  	0.00420  	0.00436  	0.00578  	0.00000  	0.00000  
92.95534  	22.96074  	49.78041  	49.55832  	33.10159  	-1.18512  	0.01985  	0.39408  	0.38055  	-3.02442  	0.06264  	-0.08563  	-128.24434  	-1.10100  	112.31458  	116.30867  	-19303.79691  	-11423.86212  	0.00461  	0.00003  	0.00420  	0.00438  	0.00579  	0.00000  	0.00000  
93.95766  	22.96176  	49.78131  	49.55999  	33.10889  	-1.18512  	0.01947  	0.39696  	0.38211  	-3.02442  	0.06198  	-0.08567  	-128.32374  	-1.09720  	112.77626  	117.15855  	-19305.58676  	-11424.10299  	0.00461  	0.00003  	0.00420  	0.00437  	0.00580  	0.00000  	0.00000  
94.95895  	22.96295  	49.78448  	49.56343  	33.11395  	-1.18512  	0.01948  	0.39940  	0.38656  	-3.02442  	0.06268  	-0.08575  	-128.37261  	-1.09583  	114.08876  	117.87807  	-19306.93393  	-11424.71951  	0.00462  	0.00002  	0.00420  	0.00437  	0.00582  	0.00000  	0.00000  
95.96230  	22.96450  	49.78598  	49.56517  	33.12001  	-1.18512  	0.01963  	0.40099  	0.38816  	-3.02442  	0.06090  	-0.08563  	-128.42969  	-1.09464  	114.56069  	118.34800  	-19308.57230  	-11425.02174  	0.00462  	0.00003  	0.00419  	0.00438  	0.00582  	0.00000  	0.00000  
96.96562  	22.96641  	49.78810  	49.56636  	33.12381  	-1.18512  	0.01847  	0.40338  	0.39075  	-3.02442  	0.06104  	-0.08571  	-128.45362  	-1.09928  	115.32585  	119.05455  	-19309.80468  	-11425.33051  	0.00463  	0.00003  	0.00420  	0.00435  	0.00583  	0.00000  	0.00000  
97.96691  	22.96818  	49.79033  	49.56697  	33.12596  	-1.18512  	0.01983  	0.40505  	0.39337  	-3.02442  	0.06138  	-0.08566  	-128.45838  	-1.10732  	116.09954  	119.54690  	-19310.64654  	-11425.59592  	0.00463  	0.00003  	0.00420  	0.00438  	0.00584  	0.00000  	0.00000  
98.97023  	22.97005  	49.79162  	49.56984  	33.12641  	-1.18512  	0.01933  	0.40583  	0.39291  	-3.02442  	0.06313  	-0.08568  	-128.44052  	-1.09948  	115.96382  	119.77650  	-19311.14740  	-11425.98404  	0.00463  	0.00003  	0.00420  	0.00437  	0.00584  	0.00000  	0.00000  
99.97357  	22.97204  	49.79477  	49.57188  	33.12613  	-1.18512  	0.01911  	0.40703  	0.39194  	-3.02442  	0.06162  	-0.08569  	-128.41178  	-1.10494  	115.67627  	120.12953  	-19311.51473  	-11426.46817  	0.00463  	0.00003  	0.00420  	0.00437  	0.00585  	0.00000  	0.00000  
100.97489  	22.97333  	49.79609  	49.57301  	33.12424  	-1.18512  	0.02023  	0.40949  	0.39201  	-3.02442  	0.06151  	-0.08575  	-128.37149  	-1.10592  	115.69597  	120.85775  	-19311.38483  	-11426.69688  	0.00463  	0.00002  	0.00420  	0.00439  	0.00586  	0.00000  	0.00000  
101.97821  	22.97419  	49.79829  	49.57490  	33.12266  	-1.18512  	0.01935  	0.40950  	0.39533  	-3.02442  	0.06217  	-0.08572  	-128.34062  	-1.10747  	116.67675  	120.85874  	-19311.23108  	-11427.07880  	0.00463  	0.00003  	0.00420  	0.00437  	0.00586  	0.00000  	0.00000  
102.98053  	22.97717  	49.80010  	49.57615  	33.11991  	-1.18512  	0.01980  	0.41031  	0.39900  	-3.02442  	0.06321  	-0.08566  	-128.26817  	-1.11023  	117.75983  	121.09763  	-19311.28030  	-11427.36351  	0.00464  	0.00003  	0.00420  	0.00438  	0.00587  	0.00000  	0.00000  
103.98085  	22.97868  	49.80175  	49.57825  	33.11505  	-1.18512  	0.02043  	0.41106  	0.39780  	-3.02442  	0.06108  	-0.08569  	-128.18765  	-1.10799  	117.40587  	121.32007  	-19310.55949  	-11427.71455  	0.00464  	0.00003  	0.00420  	0.00439  	0.00587  	0.00000  	0.00000  
104.98316  	22.98056  	49.80230  	49.57999  	33.11143  	-1.18512  	0.02039  	0.41052  	0.39558  	-3.02442  	0.06088  	-0.08566  	-128.11820  	-1.10210  	116.74992  	121.15922  	-19310.18403  	-11427.92727  	0.00463  	0.00003  	0.00419  	0.00439  	0.00587  	0.00000  	0.00000  
105.98648  	22.98135  	49.80436  	49.58096  	33.10704  	-1.18512  	0.01990  	0.40737  	0.39394  	-3.02442  	0.06162  	-0.08565  	-128.05258  	-1.10752  	116.26666  	120.23150  	-19309.40850  	-11428.21110  	0.00463  	0.00003  	0.00420  	0.00438  	0.00585  	0.00000  	0.00000  
106.98781  	22.98197  	49.80695  	49.58203  	33.10155  	-1.18512  	0.01968  	0.40637  	0.39395  	-3.02442  	0.06243  	-0.08570  	-127.97530  	-1.11504  	116.27041  	119.93422  	-19308.35893  	-11428.55238  	0.00463  	0.00003  	0.00420  	0.00438  	0.00585  	0.00000  	0.00000  
107.99012  	22.98293  	49.80759  	49.58453  	33.09791  	-1.18512  	0.01962  	0.40618  	0.39082  	-3.02442  	0.06211  	-0.08566  	-127.91720  	-1.10581  	115.34698  	119.88024  	-19307.78184  	-11428.84587  	0.00463  	0.00003  	0.00420  	0.00438  	0.00585  	0.00000  	0.00000  
108.99344  	22.98391  	49.81014  	49.58704  	33.09384  	-1.18512  	0.01992  	0.40481  	0.39303  	-3.02442  	0.06149  	-0.08566  	-127.85324  	-1.10604  	115.99914  	119.47373  	-19307.11648  	-11429.31755  	0.00463  	0.00003  	0.00420  	0.00438  	0.00584  	0.00000  	0.00000  
109.99676  	22.98412  	49.81146  	49.58804  	33.09120  	-1.18512  	0.01975  	0.40459  	0.39101  	-3.02442  	0.06112  	-0.08564  	-127.81726  	-1.10759  	115.40265  	119.41141  	-19306.59164  	-11429.53431  	0.00463  	0.00003  	0.00420  	0.00438  	0.00584  	0.00000  	0.00000  
110.99805  	22.98529  	49.81362  	49.58991  	33.08899  	-1.18512  	0.01902  	0.40314  	0.39011  	-3.02442  	0.06304  	-0.08564  	-127.77452  	-1.10900  	115.13677  	118.98301  	-19306.37052  	-11429.91033  	0.00462  	0.00003  	0.00420  	0.00437  	0.00583  	0.00000  	0.00000  
112.00139  	22.98518  	49.81495  	49.59134  	33.08695  	-1.18512  	0.01971  	0.40197  	0.38833  	-3.02442  	0.06109  	-0.08566  	-127.75003  	-1.10858  	114.61211  	118.63744  	-19305.90725  	-11430.16786  	0.00462  	0.00003  	0.00420  	0.00438  	0.00583  	0.00000  	0.00000  
113.00471  	22.98476  	49.81619  	49.59284  	33.08663  	-1.18512  	0.01913  	0.40076  	0.38697  	-3.02442  	0.06244  	-0.08569  	-127.75133  	-1.10722  	114.20898  	118.27853  	-19305.74603  	-11430.42316  	0.00462  	0.00003  	0.00420  	0.00437  	0.00582  	0.00000  	0.00000  
