10/22/2024 10:41:30Time	T_hot_in(C)	T_cold_in(C)	T_cold_out(C)	T_hot_out(C)	mdot_cold(kg/s)	ASFASIFUAS(kg/s)	Diferencial_cold(bar)	Diferencial_hot(bar)	mdot_hot(kg/s)	ABS_cold(bar)	ABS_hot(bar)	q_cold(kW)	q_hot(kW)	ASFASYFY	Tau_cold_haste	Re_hot	Re_cold	U_global	PSIG_cold(bar)	R_fouling	PSIG_hot(bar)	PSID_hot(bar)	m_dot_hot	PSID_cold(bar)	m_dot_cold
1.73935  	0.00000  	0.00000  	0.00000  	0.00000  	-1.18512  	-0.20833  	-0.86278  	-2.50000  	-3.02442  	-1.25000  	-0.08628  	-0.00000  	-0.00000  	-737.84722  	-254.63905  	-9234.48090  	-3618.55272  	0.00000  	0.00000  	0.00000  	0.00000  	0.00000  	0.00000  	0.00000  
2.74267  	12.75221  	49.88550  	49.58563  	29.74421  	-1.18512  	0.01302  	0.23392  	0.21760  	-3.02442  	0.06377  	-0.08565  	-214.88617  	-1.48663  	64.22087  	69.03874  	-16469.13356  	-11436.22028  	0.00435  	0.00003  	0.00420  	0.00425  	0.00505  	0.00000  	0.00000  
3.74399  	12.75307  	49.88552  	49.58692  	29.74095  	-1.18512  	0.01470  	0.23254  	0.21519  	-3.02442  	0.06257  	-0.08566  	-214.83396  	-1.48036  	63.51107  	68.63028  	-16468.65114  	-11436.34223  	0.00434  	0.00003  	0.00420  	0.00428  	0.00505  	0.00000  	0.00000  
4.74728  	12.75327  	49.88585  	49.58752  	29.73630  	-1.18512  	0.01411  	0.23329  	0.21783  	-3.02442  	0.06258  	-0.08564  	-214.77263  	-1.47903  	64.28911  	68.85167  	-16467.75130  	-11436.42896  	0.00435  	0.00003  	0.00420  	0.00427  	0.00505  	0.00000  	0.00000  
5.74763  	12.75282  	49.88561  	49.58895  	29.73361  	-1.18512  	0.01422  	0.23239  	0.21760  	-3.02442  	0.06178  	-0.08569  	-214.74426  	-1.47067  	64.22089  	68.58842  	-16467.11727  	-11436.54006  	0.00435  	0.00003  	0.00420  	0.00427  	0.00505  	0.00000  	0.00000  
6.74895  	12.75302  	49.88561  	49.58924  	29.73046  	-1.18512  	0.01356  	0.23316  	0.21473  	-3.02442  	0.06272  	-0.08563  	-214.70191  	-1.46924  	63.37437  	68.81494  	-16466.52460  	-11436.56728  	0.00434  	0.00003  	0.00420  	0.00426  	0.00505  	0.00000  	0.00000  
7.75224  	12.75408  	49.88580  	49.58976  	29.72751  	-1.18512  	0.01340  	0.23148  	0.21644  	-3.02442  	0.06243  	-0.08560  	-214.65115  	-1.46766  	63.87931  	68.32022  	-16466.14171  	-11436.63336  	0.00435  	0.00003  	0.00420  	0.00426  	0.00504  	0.00000  	0.00000  
8.75458  	12.75282  	49.88583  	49.59171  	29.72382  	-1.18512  	0.01332  	0.23114  	0.21253  	-3.02442  	0.06307  	-0.08574  	-214.62048  	-1.45810  	62.72456  	68.21944  	-16465.14338  	-11436.81801  	0.00434  	0.00002  	0.00420  	0.00426  	0.00504  	0.00000  	0.00000  
9.75490  	12.75296  	49.88672  	49.59175  	29.72127  	-1.18512  	0.01365  	0.23196  	0.21399  	-3.02442  	0.06220  	-0.08563  	-214.58641  	-1.46232  	63.15763  	68.46054  	-16464.65868  	-11436.90479  	0.00434  	0.00003  	0.00420  	0.00426  	0.00504  	0.00000  	0.00000  
10.75820  	12.75313  	49.88668  	49.59125  	29.71933  	-1.18512  	0.01425  	0.23071  	0.21720  	-3.02442  	0.06224  	-0.08567  	-214.55983  	-1.46463  	64.10312  	68.09098  	-16464.29966  	-11436.85493  	0.00435  	0.00003  	0.00420  	0.00427  	0.00504  	0.00000  	0.00000  
11.76154  	12.75255  	49.88754  	49.59164  	29.71812  	-1.18512  	0.01327  	0.23113  	0.21543  	-3.02442  	0.06308  	-0.08570  	-214.55180  	-1.46695  	63.58171  	68.21530  	-16463.93997  	-11436.97191  	0.00434  	0.00003  	0.00420  	0.00425  	0.00504  	0.00000  	0.00000  
12.76287  	12.75337  	49.88776  	49.59155  	29.71551  	-1.18512  	0.01432  	0.23154  	0.21412  	-3.02442  	0.06326  	-0.08567  	-214.50848  	-1.46850  	63.19627  	68.33639  	-16463.57929  	-11436.98351  	0.00434  	0.00003  	0.00420  	0.00427  	0.00504  	0.00000  	0.00000  
13.76618  	12.75326  	49.88646  	49.58973  	29.71392  	-1.18512  	0.01545  	0.23179  	0.21596  	-3.02442  	0.06320  	-0.08574  	-214.48971  	-1.47104  	63.73758  	68.41102  	-16463.23707  	-11436.69211  	0.00435  	0.00003  	0.00420  	0.00430  	0.00504  	0.00000  	0.00000  
14.76949  	12.75269  	49.88693  	49.58779  	29.71318  	-1.18512  	0.01324  	0.23151  	0.21784  	-3.02442  	0.06266  	-0.08572  	-214.48760  	-1.48299  	64.29274  	68.32794  	-16462.97156  	-11436.55553  	0.00435  	0.00003  	0.00420  	0.00425  	0.00504  	0.00000  	0.00000  
15.77079  	12.75242  	49.88621  	49.58676  	29.71280  	-1.18512  	0.01295  	0.23112  	0.21542  	-3.02442  	0.06186  	-0.08562  	-214.48617  	-1.48454  	63.58012  	68.21177  	-16462.84239  	-11436.39145  	0.00434  	0.00003  	0.00420  	0.00425  	0.00504  	0.00000  	0.00000  
16.77413  	12.75230  	49.88508  	49.58563  	29.71198  	-1.18512  	0.01433  	0.23163  	0.21221  	-3.02442  	0.06188  	-0.08566  	-214.47735  	-1.48452  	62.63213  	68.36361  	-16462.65265  	-11436.18052  	0.00434  	0.00003  	0.00420  	0.00428  	0.00504  	0.00000  	0.00000  
17.77745  	12.75313  	49.88434  	49.58517  	29.71129  	-1.18512  	0.01339  	0.22945  	0.21461  	-3.02442  	0.06184  	-0.08567  	-214.45811  	-1.48316  	63.33912  	67.71846  	-16462.67830  	-11436.06911  	0.00434  	0.00003  	0.00420  	0.00426  	0.00503  	0.00000  	0.00000  
18.77974  	12.75244  	49.88437  	49.58470  	29.71092  	-1.18512  	0.01445  	0.22977  	0.21497  	-3.02442  	0.06228  	-0.08572  	-214.46213  	-1.48563  	63.44580  	67.81529  	-16462.46502  	-11436.02803  	0.00434  	0.00003  	0.00420  	0.00428  	0.00503  	0.00000  	0.00000  
19.78106  	12.75270  	49.88309  	49.58531  	29.71114  	-1.18512  	0.01376  	0.22970  	0.21398  	-3.02442  	0.06272  	-0.08572  	-214.46178  	-1.47630  	63.15417  	67.79385  	-16462.56284  	-11435.96468  	0.00434  	0.00003  	0.00420  	0.00426  	0.00503  	0.00000  	0.00000  
20.78440  	12.75225  	49.88302  	49.58445  	29.71155  	-1.18512  	0.01374  	0.22861  	0.20920  	-3.02442  	0.06089  	-0.08566  	-214.47244  	-1.48017  	61.74233  	67.47140  	-16462.55443  	-11435.87889  	0.00433  	0.00003  	0.00419  	0.00426  	0.00503  	0.00000  	0.00000  
21.78772  	12.75290  	49.88233  	49.58424  	29.71183  	-1.18512  	0.01391  	0.22900  	0.21176  	-3.02442  	0.06310  	-0.08569  	-214.46781  	-1.47782  	62.49811  	67.58798  	-16462.74166  	-11435.79432  	0.00434  	0.00003  	0.00420  	0.00427  	0.00503  	0.00000  	0.00000  
22.78901  	12.75246  	49.88217  	49.58336  	29.71351  	-1.18512  	0.01281  	0.22865  	0.21274  	-3.02442  	0.06223  	-0.08570  	-214.49473  	-1.48135  	62.78832  	67.48333  	-16462.99237  	-11435.69735  	0.00434  	0.00003  	0.00420  	0.00425  	0.00503  	0.00000  	0.00000  
23.79236  	12.75223  	49.88296  	49.58449  	29.71599  	-1.18512  	0.01333  	0.22779  	0.21270  	-3.02442  	0.06232  	-0.08569  	-214.52898  	-1.47968  	62.77550  	67.22922  	-16463.44524  	-11435.87714  	0.00434  	0.00003  	0.00420  	0.00426  	0.00502  	0.00000  	0.00000  
24.79565  	12.75275  	49.88254  	49.58458  	29.71761  	-1.18512  	0.01339  	0.22744  	0.21273  	-3.02442  	0.06284  	-0.08572  	-214.54286  	-1.47718  	62.78516  	67.12677  	-16463.87885  	-11435.84559  	0.00434  	0.00003  	0.00420  	0.00426  	0.00502  	0.00000  	0.00000  
25.79697  	12.75375  	49.88270  	49.58508  	29.72057  	-1.18512  	0.01228  	0.22715  	0.20998  	-3.02442  	0.06297  	-0.08569  	-214.56765  	-1.47547  	61.97367  	67.03939  	-16464.67679  	-11435.90765  	0.00434  	0.00003  	0.00420  	0.00424  	0.00502  	0.00000  	0.00000  
26.80031  	12.75310  	49.88292  	49.58475  	29.72490  	-1.18512  	0.01422  	0.22651  	0.20921  	-3.02442  	0.06341  	-0.08567  	-214.63061  	-1.47820  	61.74515  	66.85324  	-16465.41821  	-11435.89633  	0.00433  	0.00003  	0.00420  	0.00427  	0.00502  	0.00000  	0.00000  
27.80363  	12.75270  	49.88259  	49.58615  	29.72842  	-1.18512  	0.01445  	0.22852  	0.21114  	-3.02442  	0.06181  	-0.08576  	-214.68013  	-1.46962  	62.31552  	67.44576  	-16466.04798  	-11435.99733  	0.00434  	0.00002  	0.00420  	0.00428  	0.00503  	0.00000  	0.00000  
28.80495  	12.75307  	49.88241  	49.58754  	29.73224  	-1.18512  	0.01470  	0.22978  	0.21319  	-3.02442  	0.06358  	-0.08564  	-214.72378  	-1.46183  	62.92086  	67.81619  	-16466.89242  	-11436.10932  	0.00434  	0.00003  	0.00420  	0.00428  	0.00503  	0.00000  	0.00000  
29.80724  	12.75368  	49.88241  	49.58797  	29.73536  	-1.18512  	0.01383  	0.23036  	0.21003  	-3.02442  	0.06267  	-0.08568  	-214.75555  	-1.45969  	61.98872  	67.98950  	-16467.64467  	-11436.14946  	0.00434  	0.00003  	0.00420  	0.00427  	0.00504  	0.00000  	0.00000  
30.81056  	12.75404  	49.88286  	49.58939  	29.73869  	-1.18512  	0.01340  	0.23047  	0.21038  	-3.02442  	0.06195  	-0.08563  	-214.79307  	-1.45489  	62.09258  	68.02152  	-16468.38964  	-11436.32407  	0.00434  	0.00003  	0.00420  	0.00426  	0.00504  	0.00000  	0.00000  
31.81188  	12.75388  	49.88424  	49.59090  	29.74191  	-1.18512  	0.01476  	0.23109  	0.21531  	-3.02442  	0.06224  	-0.08566  	-214.83595  	-1.45426  	63.54613  	68.20364  	-16469.00594  	-11436.59406  	0.00434  	0.00003  	0.00420  	0.00428  	0.00504  	0.00000  	0.00000  
32.81519  	12.75527  	49.88365  	49.59162  	29.74360  	-1.18512  	0.01441  	0.23112  	0.21485  	-3.02442  	0.06193  	-0.08562  	-214.83966  	-1.44775  	63.41008  	68.21270  	-16469.62685  	-11436.60560  	0.00434  	0.00003  	0.00420  	0.00428  	0.00504  	0.00000  	0.00000  
33.81754  	12.75449  	49.88441  	49.59124  	29.74380  	-1.18512  	0.01441  	0.23198  	0.21543  	-3.02442  	0.06198  	-0.08570  	-214.85206  	-1.45341  	63.58113  	68.46630  	-16469.51133  	-11436.64240  	0.00434  	0.00003  	0.00420  	0.00428  	0.00504  	0.00000  	0.00000  
34.81883  	12.75491  	49.88444  	49.59040  	29.74401  	-1.18512  	0.01457  	0.23199  	0.21461  	-3.02442  	0.06311  	-0.08577  	-214.84938  	-1.45771  	63.33906  	68.46875  	-16469.63894  	-11436.56540  	0.00434  	0.00002  	0.00420  	0.00428  	0.00504  	0.00000  	0.00000  
35.82215  	12.75518  	49.88423  	49.59052  	29.74394  	-1.18512  	0.01426  	0.23202  	0.21530  	-3.02442  	0.06073  	-0.08573  	-214.84510  	-1.45609  	63.54209  	68.47757  	-16469.67783  	-11436.55831  	0.00434  	0.00003  	0.00419  	0.00427  	0.00504  	0.00000  	0.00000  
36.82546  	12.75589  	49.88448  	49.59033  	29.74219  	-1.18512  	0.01378  	0.23309  	0.21805  	-3.02442  	0.06156  	-0.08568  	-214.81395  	-1.45828  	64.35623  	68.79539  	-16469.46731  	-11436.56339  	0.00435  	0.00003  	0.00420  	0.00426  	0.00505  	0.00000  	0.00000  
37.82682  	12.75608  	49.88494  	49.59119  	29.74003  	-1.18512  	0.01507  	0.23257  	0.21363  	-3.02442  	0.06289  	-0.08572  	-214.78435  	-1.45629  	63.05004  	68.64061  	-16469.07029  	-11436.68656  	0.00434  	0.00003  	0.00420  	0.00429  	0.00505  	0.00000  	0.00000  
38.82911  	12.75573  	49.88519  	49.59090  	29.73803  	-1.18512  	0.01348  	0.23299  	0.21699  	-3.02442  	0.06306  	-0.08564  	-214.76342  	-1.45897  	64.04318  	68.76336  	-16468.59606  	-11436.68288  	0.00435  	0.00003  	0.00420  	0.00426  	0.00505  	0.00000  	0.00000  
39.83146  	12.75490  	49.88420  	49.59067  	29.73388  	-1.18512  	0.01359  	0.23250  	0.21565  	-3.02442  	0.06264  	-0.08569  	-214.72140  	-1.45519  	63.64621  	68.61924  	-16467.59305  	-11436.56840  	0.00435  	0.00003  	0.00420  	0.00426  	0.00505  	0.00000  	0.00000  
40.83474  	12.75522  	49.88437  	49.58907  	29.73061  	-1.18512  	0.01418  	0.23275  	0.21550  	-3.02442  	0.06199  	-0.08569  	-214.67599  	-1.46401  	63.60155  	68.69242  	-16466.99827  	-11436.43536  	0.00434  	0.00003  	0.00420  	0.00427  	0.00505  	0.00000  	0.00000  
41.83506  	12.75525  	49.88475  	49.58809  	29.72758  	-1.18512  	0.01386  	0.23260  	0.21387  	-3.02442  	0.06306  	-0.08573  	-214.63732  	-1.47068  	63.11996  	68.64972  	-16466.39308  	-11436.37922  	0.00434  	0.00003  	0.00420  	0.00427  	0.00505  	0.00000  	0.00000  
42.83841  	12.75454  	49.88477  	49.58667  	29.72508  	-1.18512  	0.01427  	0.23221  	0.21303  	-3.02442  	0.06340  	-0.08570  	-214.61475  	-1.47785  	62.87303  	68.53555  	-16465.74487  	-11436.24823  	0.00434  	0.00003  	0.00420  	0.00427  	0.00505  	0.00000  	0.00000  
43.84172  	12.75440  	49.88374  	49.58674  	29.72213  	-1.18512  	0.01407  	0.23213  	0.21637  	-3.02442  	0.06250  	-0.08572  	-214.57922  	-1.47238  	63.86044  	68.51054  	-16465.12257  	-11436.15955  	0.00435  	0.00003  	0.00420  	0.00427  	0.00504  	0.00000  	0.00000  
44.84302  	12.75455  	49.88296  	49.58442  	29.72031  	-1.18512  	0.01409  	0.23110  	0.21139  	-3.02442  	0.06181  	-0.08566  	-214.55426  	-1.48000  	62.38936  	68.20704  	-16464.78361  	-11435.86982  	0.00434  	0.00003  	0.00420  	0.00427  	0.00504  	0.00000  	0.00000  
45.84636  	12.75426  	49.88274  	49.58384  	29.71882  	-1.18512  	0.01352  	0.23172  	0.21630  	-3.02442  	0.06248  	-0.08575  	-214.53904  	-1.48179  	63.83848  	68.39082  	-16464.42730  	-11435.79490  	0.00435  	0.00002  	0.00420  	0.00426  	0.00504  	0.00000  	0.00000  
46.84965  	12.75349  	49.88263  	49.58247  	29.71563  	-1.18512  	0.01402  	0.23127  	0.21302  	-3.02442  	0.06271  	-0.08569  	-214.50836  	-1.48809  	62.87016  	68.25652  	-16463.62726  	-11435.65732  	0.00434  	0.00003  	0.00420  	0.00427  	0.00504  	0.00000  	0.00000  
47.85097  	12.75316  	49.88309  	49.58173  	29.71393  	-1.18512  	0.01325  	0.23189  	0.21685  	-3.02442  	0.06174  	-0.08565  	-214.49103  	-1.49399  	64.00069  	68.43991  	-16463.21814  	-11435.63126  	0.00435  	0.00003  	0.00420  	0.00425  	0.00504  	0.00000  	0.00000  
48.85429  	12.75410  	49.88372  	49.58375  	29.71267  	-1.18512  	0.01342  	0.23124  	0.21532  	-3.02442  	0.06266  	-0.08569  	-214.46333  	-1.48713  	63.54943  	68.24655  	-16463.15431  	-11435.87815  	0.00434  	0.00003  	0.00420  	0.00426  	0.00504  	0.00000  	0.00000  
49.85760  	12.75420  	49.88384  	49.58519  	29.71172  	-1.18512  	0.01421  	0.23099  	0.21426  	-3.02442  	0.06178  	-0.08568  	-214.45011  	-1.48059  	63.23641  	68.17317  	-16462.98213  	-11436.02411  	0.00434  	0.00003  	0.00420  	0.00427  	0.00504  	0.00000  	0.00000  
50.85892  	12.75372  	49.88353  	49.58628  	29.71135  	-1.18512  	0.01311  	0.23093  	0.21405  	-3.02442  	0.06253  	-0.08569  	-214.45144  	-1.47359  	63.17440  	68.15641  	-16462.81161  	-11436.09654  	0.00434  	0.00003  	0.00420  	0.00425  	0.00504  	0.00000  	0.00000  
51.86224  	12.75428  	49.88429  	49.58721  	29.70963  	-1.18512  	0.01518  	0.23066  	0.21235  	-3.02442  	0.06195  	-0.08565  	-214.42260  	-1.47280  	62.67176  	68.07668  	-16462.57619  	-11436.25367  	0.00434  	0.00003  	0.00420  	0.00429  	0.00504  	0.00000  	0.00000  
52.86558  	12.75404  	49.88386  	49.58654  	29.70959  	-1.18512  	0.01360  	0.23090  	0.21640  	-3.02442  	0.06173  	-0.08562  	-214.42509  	-1.47399  	63.86863  	68.14701  	-16462.52147  	-11436.15139  	0.00435  	0.00003  	0.00420  	0.00426  	0.00504  	0.00000  	0.00000  
53.86691  	12.75369  	49.88423  	49.58652  	29.70968  	-1.18512  	0.01366  	0.23050  	0.21636  	-3.02442  	0.06411  	-0.08571  	-214.43076  	-1.47589  	63.85546  	68.02830  	-16462.46737  	-11436.18431  	0.00435  	0.00003  	0.00421  	0.00426  	0.00504  	0.00000  	0.00000  
54.87019  	12.75464  	49.88369  	49.58598  	29.70890  	-1.18512  	0.01350  	0.22909  	0.21268  	-3.02442  	0.06233  	-0.08568  	-214.40882  	-1.47589  	62.76931  	67.61336  	-16462.50102  	-11436.08377  	0.00434  	0.00003  	0.00420  	0.00426  	0.00503  	0.00000  	0.00000  
55.87254  	12.75420  	49.88444  	49.58601  	29.70925  	-1.18512  	0.01401  	0.22994  	0.21209  	-3.02442  	0.06134  	-0.08567  	-214.41870  	-1.47951  	62.59495  	67.86422  	-16462.48465  	-11436.15653  	0.00434  	0.00003  	0.00420  	0.00427  	0.00503  	0.00000  	0.00000  
56.87387  	12.75396  	49.88438  	49.58459  	29.70992  	-1.18512  	0.01385  	0.23000  	0.21145  	-3.02442  	0.06244  	-0.08569  	-214.43031  	-1.48625  	62.40782  	67.88055  	-16462.56935  	-11436.01797  	0.00434  	0.00003  	0.00420  	0.00427  	0.00503  	0.00000  	0.00000  
57.87715  	12.75358  	49.88366  	49.58328  	29.71131  	-1.18512  	0.01426  	0.22904  	0.21130  	-3.02442  	0.06473  	-0.08569  	-214.45267  	-1.48912  	62.36183  	67.59905  	-16462.77609  	-11435.82889  	0.00434  	0.00003  	0.00421  	0.00427  	0.00503  	0.00000  	0.00000  
58.88047  	12.75395  	49.88333  	49.58285  	29.71242  	-1.18512  	0.01384  	0.22885  	0.20996  	-3.02442  	0.06402  	-0.08567  	-214.46203  	-1.48969  	61.96723  	67.54271  	-16463.07285  	-11435.75764  	0.00434  	0.00003  	0.00420  	0.00427  	0.00503  	0.00000  	0.00000  
59.88179  	12.75319  	49.88278  	49.58148  	29.71442  	-1.18512  	0.01545  	0.22782  	0.20607  	-3.02442  	0.06110  	-0.08568  	-214.49701  	-1.49369  	60.82061  	67.23707  	-16463.32299  	-11435.57866  	0.00433  	0.00003  	0.00420  	0.00430  	0.00502  	0.00000  	0.00000  
60.88514  	12.75367  	49.88185  	49.58080  	29.71511  	-1.18512  	0.01361  	0.22768  	0.21168  	-3.02442  	0.06175  	-0.08574  	-214.49952  	-1.49247  	62.47623  	67.19715  	-16463.55922  	-11435.42833  	0.00434  	0.00003  	0.00420  	0.00426  	0.00502  	0.00000  	0.00000  
61.88745  	12.75368  	49.88269  	49.58024  	29.71714  	-1.18512  	0.01466  	0.22668  	0.21135  	-3.02442  	0.06202  	-0.08569  	-214.52508  	-1.49942  	62.37889  	66.90105  	-16463.96973  	-11435.45481  	0.00434  	0.00003  	0.00420  	0.00428  	0.00502  	0.00000  	0.00000  
62.88877  	12.75356  	49.88180  	49.58017  	29.71971  	-1.18512  	0.01500  	0.22710  	0.20747  	-3.02442  	0.06196  	-0.08570  	-214.55911  	-1.49532  	61.23352  	67.02483  	-16464.46468  	-11435.36440  	0.00433  	0.00003  	0.00420  	0.00429  	0.00502  	0.00000  	0.00000  
63.89007  	12.75464  	49.87995  	49.57898  	29.72423  	-1.18512  	0.01518  	0.22638  	0.20785  	-3.02442  	0.06235  	-0.08568  	-214.60273  	-1.49204  	61.34377  	66.81287  	-16465.59461  	-11435.08100  	0.00433  	0.00003  	0.00420  	0.00429  	0.00502  	0.00000  	0.00000  
64.89341  	12.75368  	49.87866  	49.57966  	29.72714  	-1.18512  	0.01340  	0.22751  	0.21250  	-3.02442  	0.06079  	-0.08561  	-214.65151  	-1.48229  	62.71615  	67.14744  	-16465.98690  	-11435.02344  	0.00434  	0.00003  	0.00419  	0.00426  	0.00502  	0.00000  	0.00000  
65.89673  	12.75395  	49.87924  	49.57937  	29.73000  	-1.18512  	0.01288  	0.22911  	0.21292  	-3.02442  	0.06307  	-0.08566  	-214.68432  	-1.48662  	62.84064  	67.61869  	-16466.61739  	-11435.05085  	0.00434  	0.00003  	0.00420  	0.00425  	0.00503  	0.00000  	0.00000  
66.89802  	12.75477  	49.87904  	49.57965  	29.73389  	-1.18512  	0.01366  	0.22995  	0.21410  	-3.02442  	0.06172  	-0.08572  	-214.72319  	-1.48422  	63.19022  	67.86610  	-16467.56720  	-11435.05881  	0.00434  	0.00003  	0.00420  	0.00426  	0.00503  	0.00000  	0.00000  
67.90134  	12.75542  	49.87981  	49.58070  	29.73780  	-1.18512  	0.01468  	0.23022  	0.21587  	-3.02442  	0.06350  	-0.08568  	-214.76441  	-1.48289  	63.71072  	67.94548  	-16468.48677  	-11435.22847  	0.00435  	0.00003  	0.00420  	0.00428  	0.00504  	0.00000  	0.00000  
68.90468  	12.75578  	49.87872  	49.58119  	29.73992  	-1.18512  	0.01352  	0.23114  	0.21301  	-3.02442  	0.06362  	-0.08568  	-214.78669  	-1.47498  	62.86832  	68.21754  	-16468.98901  	-11435.17248  	0.00434  	0.00003  	0.00420  	0.00426  	0.00504  	0.00000  	0.00000  
69.90600  	12.75538  	49.87883  	49.58283  	29.74142  	-1.18512  	0.01392  	0.23047  	0.21221  	-3.02442  	0.06238  	-0.08570  	-214.81073  	-1.46744  	62.63180  	68.02175  	-16469.21119  	-11435.33512  	0.00434  	0.00003  	0.00420  	0.00427  	0.00504  	0.00000  	0.00000  
70.90932  	12.75610  	49.87900  	49.58379  	29.74248  	-1.18512  	0.01402  	0.23181  	0.21709  	-3.02442  	0.06434  	-0.08569  	-214.81493  	-1.46353  	64.07163  	68.41573  	-16469.56867  	-11435.44135  	0.00435  	0.00003  	0.00421  	0.00427  	0.00504  	0.00000  	0.00000  
71.91261  	12.75593  	49.87907  	49.58495  	29.74343  	-1.18512  	0.01328  	0.23153  	0.21642  	-3.02442  	0.06224  	-0.08571  	-214.82924  	-1.45812  	63.87297  	68.33298  	-16469.72631  	-11435.55669  	0.00435  	0.00003  	0.00420  	0.00426  	0.00504  	0.00000  	0.00000  
72.91393  	12.75591  	49.87938  	49.58646  	29.74144  	-1.18512  	0.01410  	0.23196  	0.21401  	-3.02442  	0.06217  	-0.08567  	-214.80426  	-1.45218  	63.16355  	68.46151  	-16469.31914  	-11435.72543  	0.00434  	0.00003  	0.00420  	0.00427  	0.00504  	0.00000  	0.00000  
73.91727  	12.75595  	49.88035  	49.58684  	29.73943  	-1.18512  	0.01455  	0.23287  	0.21449  	-3.02442  	0.06097  	-0.08571  	-214.77835  	-1.45507  	63.30380  	68.72946  	-16468.92435  	-11435.85230  	0.00434  	0.00003  	0.00420  	0.00428  	0.00505  	0.00000  	0.00000  
74.92059  	12.75513  	49.88137  	49.58685  	29.73828  	-1.18512  	0.01391  	0.23289  	0.21524  	-3.02442  	0.06381  	-0.08571  	-214.77421  	-1.46011  	63.52582  	68.73574  	-16468.52682  	-11435.94829  	0.00434  	0.00003  	0.00420  	0.00427  	0.00505  	0.00000  	0.00000  
75.92191  	12.75603  	49.88155  	49.58787  	29.73620  	-1.18512  	0.01404  	0.23352  	0.21349  	-3.02442  	0.06233  	-0.08573  	-214.73640  	-1.45593  	63.00921  	68.92150  	-16468.28855  	-11436.05971  	0.00434  	0.00003  	0.00420  	0.00427  	0.00505  	0.00000  	0.00000  
76.92420  	12.75597  	49.88225  	49.58837  	29.73292  	-1.18512  	0.01374  	0.23399  	0.21732  	-3.02442  	0.06180  	-0.08566  	-214.69576  	-1.45695  	64.14019  	69.06053  	-16467.61311  	-11436.17215  	0.00435  	0.00003  	0.00420  	0.00426  	0.00505  	0.00000  	0.00000  
77.92752  	12.75509  	49.88245  	49.58921  	29.73000  	-1.18512  	0.01349  	0.23334  	0.21331  	-3.02442  	0.06402  	-0.08570  	-214.66992  	-1.45378  	62.95566  	68.86696  	-16466.84784  	-11436.26920  	0.00434  	0.00003  	0.00420  	0.00426  	0.00505  	0.00000  	0.00000  
78.92884  	12.75518  	49.88221  	49.58979  	29.72794  	-1.18512  	0.01399  	0.23291  	0.21445  	-3.02442  	0.06150  	-0.08572  	-214.64270  	-1.44971  	63.29110  	68.74206  	-16466.45074  	-11436.30123  	0.00434  	0.00003  	0.00420  	0.00427  	0.00505  	0.00000  	0.00000  
79.93215  	12.75515  	49.88303  	49.58946  	29.72375  	-1.18512  	0.01368  	0.23209  	0.21531  	-3.02442  	0.06220  	-0.08572  	-214.59008  	-1.45536  	63.54491  	68.49787  	-16465.59982  	-11436.34672  	0.00434  	0.00003  	0.00420  	0.00426  	0.00504  	0.00000  	0.00000  
80.93450  	12.75442  	49.88275  	49.58932  	29.72167  	-1.18512  	0.01496  	0.23178  	0.21588  	-3.02442  	0.06147  	-0.08567  	-214.57304  	-1.45468  	63.71474  	68.40791  	-16465.03215  	-11436.30716  	0.00435  	0.00003  	0.00420  	0.00429  	0.00504  	0.00000  	0.00000  
81.93581  	12.75410  	49.88281  	49.58792  	29.71881  	-1.18512  	0.01343  	0.23214  	0.21306  	-3.02442  	0.06151  	-0.08570  	-214.54091  	-1.46197  	62.88200  	68.51305  	-16464.39181  	-11436.18238  	0.00434  	0.00003  	0.00420  	0.00426  	0.00504  	0.00000  	0.00000  
82.93711  	12.75311  	49.88315  	49.58655  	29.71605  	-1.18512  	0.01482  	0.23234  	0.21357  	-3.02442  	0.06231  	-0.08570  	-214.51852  	-1.47040  	63.03303  	68.57249  	-16463.63606  	-11436.08653  	0.00434  	0.00003  	0.00420  	0.00428  	0.00505  	0.00000  	0.00000  
83.94046  	12.75309  	49.88267  	49.58549  	29.71362  	-1.18512  	0.01457  	0.23193  	0.21558  	-3.02442  	0.06249  	-0.08574  	-214.48816  	-1.47327  	63.62537  	68.45090  	-16463.14077  	-11435.94189  	0.00434  	0.00003  	0.00420  	0.00428  	0.00504  	0.00000  	0.00000  
84.94375  	12.75304  	49.88249  	49.58359  	29.71240  	-1.18512  	0.01386  	0.23027  	0.21695  	-3.02442  	0.06457  	-0.08574  	-214.47324  	-1.48178  	64.02911  	67.96285  	-16462.88553  	-11435.74872  	0.00435  	0.00003  	0.00421  	0.00427  	0.00504  	0.00000  	0.00000  
85.94507  	12.75343  	49.88277  	49.58321  	29.71047  	-1.18512  	0.01466  	0.23017  	0.21701  	-3.02442  	0.06152  	-0.08571  	-214.44401  	-1.48510  	64.04672  	67.93214  	-16462.57539  	-11435.73951  	0.00435  	0.00003  	0.00420  	0.00428  	0.00504  	0.00000  	0.00000  
86.94838  	12.75319  	49.88302  	49.58309  	29.70777  	-1.18512  	0.01460  	0.23055  	0.21739  	-3.02442  	0.06278  	-0.08568  	-214.41288  	-1.48693  	64.16070  	68.04424  	-16461.98147  	-11435.75183  	0.00435  	0.00003  	0.00420  	0.00428  	0.00504  	0.00000  	0.00000  
87.95170  	12.75288  	49.88257  	49.58259  	29.70745  	-1.18512  	0.01474  	0.23039  	0.21307  	-3.02442  	0.06125  	-0.08566  	-214.41281  	-1.48717  	62.88616  	67.99739  	-16461.85524  	-11435.66336  	0.00434  	0.00003  	0.00420  	0.00428  	0.00504  	0.00000  	0.00000  
88.95302  	12.75221  	49.88339  	49.58301  	29.70638  	-1.18512  	0.01361  	0.23028  	0.21725  	-3.02442  	0.06154  	-0.08568  	-214.40767  	-1.48915  	64.11993  	67.96563  	-16461.50299  	-11435.77857  	0.00435  	0.00003  	0.00420  	0.00426  	0.00504  	0.00000  	0.00000  
89.95637  	12.75283  	49.88380  	49.58434  	29.70595  	-1.18512  	0.01313  	0.23066  	0.21506  	-3.02442  	0.06346  	-0.08573  	-214.39443  	-1.48458  	63.47149  	68.07802  	-16461.54120  	-11435.94100  	0.00434  	0.00003  	0.00420  	0.00425  	0.00504  	0.00000  	0.00000  
90.95868  	12.75221  	49.88359  	49.58497  	29.70607  	-1.18512  	0.01438  	0.22956  	0.21600  	-3.02442  	0.06303  	-0.08567  	-214.40375  	-1.48043  	63.75063  	67.75068  	-16461.44202  	-11435.97994  	0.00435  	0.00003  	0.00420  	0.00428  	0.00503  	0.00000  	0.00000  
91.95999  	12.75249  	49.88414  	49.58750  	29.70502  	-1.18512  	0.01405  	0.23062  	0.21478  	-3.02442  	0.06154  	-0.08573  	-214.38692  	-1.47058  	63.38874  	68.06486  	-16461.28568  	-11436.26708  	0.00434  	0.00003  	0.00420  	0.00427  	0.00504  	0.00000  	0.00000  
92.96231  	12.75304  	49.88432  	49.58783  	29.70520  	-1.18512  	0.01392  	0.23029  	0.21331  	-3.02442  	0.06225  	-0.08570  	-214.38228  	-1.46987  	62.95616  	67.96779  	-16461.43423  	-11436.31552  	0.00434  	0.00003  	0.00420  	0.00427  	0.00504  	0.00000  	0.00000  
93.96562  	12.75265  	49.88446  	49.58782  	29.70549  	-1.18512  	0.01308  	0.22923  	0.21233  	-3.02442  	0.06292  	-0.08565  	-214.39088  	-1.47060  	62.66733  	67.65597  	-16461.41416  	-11436.32745  	0.00434  	0.00003  	0.00420  	0.00425  	0.00503  	0.00000  	0.00000  
94.96697  	12.75323  	49.88429  	49.58838  	29.70681  	-1.18512  	0.01392  	0.22942  	0.21354  	-3.02442  	0.06251  	-0.08567  	-214.40025  	-1.46698  	63.02304  	67.70967  	-16461.79695  	-11436.36403  	0.00434  	0.00003  	0.00420  	0.00427  	0.00503  	0.00000  	0.00000  
95.97026  	12.75278  	49.88493  	49.58979  	29.70889  	-1.18512  	0.01354  	0.22907  	0.21245  	-3.02442  	0.06208  	-0.08573  	-214.43227  	-1.46318  	62.70141  	67.60605  	-16462.12561  	-11436.55518  	0.00434  	0.00003  	0.00420  	0.00426  	0.00503  	0.00000  	0.00000  
96.97358  	12.75396  	49.88536  	49.59012  	29.70990  	-1.18512  	0.01290  	0.22836  	0.21176  	-3.02442  	0.06220  	-0.08567  	-214.43013  	-1.46365  	62.49942  	67.39906  	-16462.56731  	-11436.62561  	0.00434  	0.00003  	0.00420  	0.00425  	0.00503  	0.00000  	0.00000  
97.97490  	12.75440  	49.88553  	49.59109  	29.71141  	-1.18512  	0.01380  	0.22757  	0.21095  	-3.02442  	0.06311  	-0.08571  	-214.44356  	-1.45971  	62.26079  	67.16594  	-16462.95843  	-11436.73181  	0.00434  	0.00003  	0.00420  	0.00427  	0.00502  	0.00000  	0.00000  
98.97821  	12.75367  	49.88475  	49.59104  	29.71339  	-1.18512  	0.01453  	0.22788  	0.21072  	-3.02442  	0.06171  	-0.08571  	-214.47794  	-1.45608  	62.19233  	67.25728  	-16463.21166  	-11436.65495  	0.00434  	0.00003  	0.00420  	0.00428  	0.00503  	0.00000  	0.00000  
99.98153  	12.75368  	49.88490  	49.58882  	29.71715  	-1.18512  	0.01396  	0.22746  	0.21169  	-3.02442  	0.06329  	-0.08567  	-214.52528  	-1.46783  	62.47803  	67.13156  	-16463.97101  	-11436.46159  	0.00434  	0.00003  	0.00420  	0.00427  	0.00502  	0.00000  	0.00000  
100.98288  	12.75450  	49.88489  	49.58834  	29.71821  	-1.18512  	0.01456  	0.22751  	0.21099  	-3.02442  	0.06316  	-0.08571  	-214.52824  	-1.47013  	62.27153  	67.14785  	-16464.35244  	-11436.41556  	0.00434  	0.00003  	0.00420  	0.00428  	0.00502  	0.00000  	0.00000  
101.98520  	12.75468  	49.88585  	49.58862  	29.72176  	-1.18512  	0.01308  	0.22749  	0.21150  	-3.02442  	0.06320  	-0.08569  	-214.57091  	-1.47353  	62.42172  	67.13968  	-16465.10530  	-11436.53119  	0.00434  	0.00003  	0.00420  	0.00425  	0.00502  	0.00000  	0.00000  
102.98851  	12.75400  	49.88511  	49.58733  	29.72615  	-1.18512  	0.01289  	0.22839  	0.21317  	-3.02442  	0.06259  	-0.08571  	-214.63506  	-1.47626  	62.91529  	67.40657  	-16465.85138  	-11436.34267  	0.00434  	0.00003  	0.00420  	0.00425  	0.00503  	0.00000  	0.00000  
103.98984  	12.75463  	49.88355  	49.58635  	29.73001  	-1.18512  	0.01405  	0.22859  	0.21319  	-3.02442  	0.06242  	-0.08573  	-214.67588  	-1.47340  	62.92174  	67.46575  	-16466.75882  	-11436.10466  	0.00434  	0.00003  	0.00420  	0.00427  	0.00503  	0.00000  	0.00000  
104.99312  	12.75503  	49.88326  	49.58593  	29.73231  	-1.18512  	0.01348  	0.23108  	0.21398  	-3.02442  	0.06279  	-0.08564  	-214.69988  	-1.47403  	63.15324  	68.20210  	-16467.30282  	-11436.03821  	0.00434  	0.00003  	0.00420  	0.00426  	0.00504  	0.00000  	0.00000  
105.99647  	12.75568  	49.88296  	49.58576  	29.73505  	-1.18512  	0.01369  	0.23004  	0.21334  	-3.02442  	0.06410  	-0.08571  	-214.72626  	-1.47337  	62.96385  	67.89479  	-16467.98539  	-11435.99523  	0.00434  	0.00003  	0.00421  	0.00426  	0.00504  	0.00000  	0.00000  
106.99776  	12.75563  	49.88108  	49.58454  	29.73760  	-1.18512  	0.01438  	0.23224  	0.21586  	-3.02442  	0.06382  	-0.08568  	-214.75920  	-1.47012  	63.70781  	68.54330  	-16468.49101  	-11435.70580  	0.00435  	0.00003  	0.00420  	0.00428  	0.00505  	0.00000  	0.00000  
108.00008  	12.75709  	49.88127  	49.58351  	29.73786  	-1.18512  	0.01400  	0.23259  	0.21639  	-3.02442  	0.06279  	-0.08566  	-214.74398  	-1.47619  	63.86477  	68.64609  	-16468.83648  	-11435.62738  	0.00435  	0.00003  	0.00420  	0.00427  	0.00505  	0.00000  	0.00000  
109.00342  	12.75708  	49.88101  	49.58130  	29.73831  	-1.18512  	0.01476  	0.23188  	0.21545  	-3.02442  	0.06263  	-0.08571  	-214.74994  	-1.48583  	63.58628  	68.43559  	-16468.92590  	-11435.39599  	0.00434  	0.00003  	0.00420  	0.00428  	0.00504  	0.00000  	0.00000  
110.00674  	12.75616  	49.88030  	49.58130  	29.73838  	-1.18512  	0.01328  	0.23268  	0.21515  	-3.02442  	0.06146  	-0.08569  	-214.76243  	-1.48232  	63.49941  	68.67151  	-16468.75478  	-11435.32986  	0.00434  	0.00003  	0.00420  	0.00425  	0.00505  	0.00000  	0.00000  
111.00806  	12.75636  	49.88037  	49.58106  	29.73692  	-1.18512  	0.01301  	0.23301  	0.21685  	-3.02442  	0.06164  	-0.08568  	-214.74140  	-1.48383  	64.00208  	68.77068  	-16468.49833  	-11435.31401  	0.00435  	0.00003  	0.00420  	0.00425  	0.00505  	0.00000  	0.00000  
112.01138  	12.75685  	49.88158  	49.58331  	29.73545  	-1.18512  	0.01412  	0.23224  	0.21671  	-3.02442  	0.06167  	-0.08572  	-214.71660  	-1.47869  	63.96050  	68.54200  	-16468.30114  	-11435.63720  	0.00435  	0.00003  	0.00420  	0.00427  	0.00505  	0.00000  	0.00000  
