11/01/2024 10:09:29Time	T_hot_in(C)	T_cold_in(C)	T_cold_out(C)	T_hot_out(C)	mdot_cold(kg/s)	ASFASIFUAS(kg/s)	Diferencial_cold(bar)	Diferencial_hot(bar)	mdot_hot(kg/s)	ABS_cold(bar)	ABS_hot(bar)	q_cold(kW)	q_hot(kW)	ASFASYFY	Tau_cold_haste	Re_hot	Re_cold	U_global	PSIG_cold(bar)	R_fouling	PSIG_hot(bar)	PSID_hot(bar)	m_dot_hot	PSID_cold(bar)	m_dot_cold
1.74685  	0.00000  	0.00000  	0.00000  	0.00000  	-1.18512  	-0.20833  	-0.86278  	-2.50000  	-3.02442  	-1.25000  	-0.08628  	-0.00000  	-0.00000  	-737.84722  	-254.63905  	-9234.48090  	-3618.55272  	0.00000  	0.00000  	0.00000  	0.00000  	0.00000  	0.00000  	0.00000  
2.74687  	33.22918  	5.17287  	5.44189  	25.98641  	-1.18512  	0.03107  	0.29163  	0.29152  	-3.02442  	0.03043  	-0.08569  	-91.84306  	-1.33360  	86.03987  	86.07099  	-19986.85225  	-4218.59690  	0.00447  	0.00003  	0.00410  	0.00460  	0.00532  	0.00000  	0.00000  
3.74685  	33.23122  	5.17217  	5.44044  	25.98415  	-1.18512  	0.02673  	0.28807  	0.29121  	-3.02442  	0.03073  	-0.08587  	-91.89747  	-1.32989  	85.94634  	85.02043  	-19986.80494  	-4218.46765  	0.00447  	0.00002  	0.00410  	0.00451  	0.00530  	0.00000  	0.00000  
4.74762  	33.23348  	5.17084  	5.43869  	25.97713  	-1.18512  	0.02865  	0.28672  	0.28455  	-3.02442  	0.03111  	-0.08581  	-92.01522  	-1.32783  	83.98095  	84.62117  	-19985.76743  	-4218.28265  	0.00446  	0.00002  	0.00410  	0.00455  	0.00530  	0.00000  	0.00000  
5.74752  	33.23444  	5.16950  	5.43636  	25.97204  	-1.18512  	0.02691  	0.28508  	0.28526  	-3.02442  	0.03030  	-0.08577  	-92.09213  	-1.32294  	84.19117  	84.13840  	-19984.86827  	-4218.06238  	0.00446  	0.00002  	0.00410  	0.00452  	0.00529  	0.00000  	0.00000  
6.74744  	33.23493  	5.16738  	5.43522  	25.96634  	-1.18512  	0.02541  	0.28784  	0.28905  	-3.02442  	0.03021  	-0.08563  	-92.17053  	-1.32777  	85.31038  	84.95222  	-19983.73368  	-4217.86641  	0.00446  	0.00003  	0.00410  	0.00449  	0.00530  	0.00000  	0.00000  
7.74881  	33.23662  	5.16672  	5.43329  	25.95884  	-1.18512  	0.02856  	0.28988  	0.29138  	-3.02442  	0.03390  	-0.08574  	-92.28729  	-1.32151  	85.99665  	85.55434  	-19982.46839  	-4217.71039  	0.00447  	0.00003  	0.00411  	0.00455  	0.00531  	0.00000  	0.00000  
8.74970  	33.23852  	5.16377  	5.43069  	25.95015  	-1.18512  	0.02640  	0.29097  	0.29758  	-3.02442  	0.03230  	-0.08577  	-92.42165  	-1.32320  	87.82691  	85.87665  	-19980.98836  	-4217.37730  	0.00448  	0.00002  	0.00410  	0.00451  	0.00532  	0.00000  	0.00000  
9.75046  	33.24001  	5.16246  	5.42998  	25.94454  	-1.18512  	0.02796  	0.29355  	0.29368  	-3.02442  	0.03298  	-0.08576  	-92.51172  	-1.32621  	86.67613  	86.63760  	-19980.09192  	-4217.25611  	0.00447  	0.00002  	0.00411  	0.00454  	0.00533  	0.00000  	0.00000  
10.75041  	33.24063  	5.16172  	5.42962  	25.93913  	-1.18512  	0.02937  	0.29487  	0.29848  	-3.02442  	0.03326  	-0.08574  	-92.58823  	-1.32805  	88.09333  	87.02810  	-19979.04718  	-4217.18979  	0.00448  	0.00002  	0.00411  	0.00456  	0.00533  	0.00000  	0.00000  
11.75027  	33.24093  	5.16001  	5.42852  	25.93551  	-1.18512  	0.03024  	0.29723  	0.29592  	-3.02442  	0.03234  	-0.08580  	-92.63803  	-1.33112  	87.33687  	87.72286  	-19978.32513  	-4217.02072  	0.00447  	0.00002  	0.00410  	0.00458  	0.00534  	0.00000  	0.00000  
12.75114  	33.24430  	5.15925  	5.42737  	25.93192  	-1.18512  	0.02898  	0.29973  	0.30116  	-3.02442  	0.02995  	-0.08580  	-92.72633  	-1.32919  	88.88523  	88.46072  	-19978.27701  	-4216.90671  	0.00448  	0.00002  	0.00410  	0.00456  	0.00536  	0.00000  	0.00000  
13.75216  	33.24595  	5.15734  	5.42652  	25.93035  	-1.18512  	0.02688  	0.29962  	0.30272  	-3.02442  	0.03097  	-0.08580  	-92.76706  	-1.33446  	89.34590  	88.42831  	-19978.29486  	-4216.74041  	0.00448  	0.00002  	0.00410  	0.00452  	0.00536  	0.00000  	0.00000  
14.75303  	33.24699  	5.15709  	5.42493  	25.93128  	-1.18512  	0.02715  	0.30137  	0.30755  	-3.02442  	0.02987  	-0.08574  	-92.76868  	-1.32780  	90.76852  	88.94543  	-19978.72389  	-4216.63007  	0.00449  	0.00002  	0.00410  	0.00452  	0.00536  	0.00000  	0.00000  
15.75360  	33.24875  	5.15642  	5.42417  	25.93274  	-1.18512  	0.02914  	0.30317  	0.30243  	-3.02442  	0.03159  	-0.08578  	-92.77240  	-1.32734  	89.25739  	89.47619  	-19979.42591  	-4216.54371  	0.00448  	0.00002  	0.00410  	0.00456  	0.00537  	0.00000  	0.00000  
16.75445  	33.25035  	5.15491  	5.42329  	25.93435  	-1.18512  	0.02890  	0.30350  	0.30717  	-3.02442  	0.03050  	-0.08577  	-92.77243  	-1.33047  	90.65652  	89.57554  	-19980.12507  	-4216.40061  	0.00449  	0.00002  	0.00410  	0.00455  	0.00537  	0.00000  	0.00000  
17.75379  	33.25233  	5.15338  	5.42269  	25.93877  	-1.18512  	0.02761  	0.30516  	0.30749  	-3.02442  	0.03038  	-0.08576  	-92.74136  	-1.33506  	90.75304  	90.06581  	-19981.51770  	-4216.27243  	0.00449  	0.00002  	0.00410  	0.00453  	0.00538  	0.00000  	0.00000  
18.75650  	33.25331  	5.15220  	5.42167  	25.94199  	-1.18512  	0.02787  	0.30563  	0.30873  	-3.02442  	0.03258  	-0.08577  	-92.71305  	-1.33587  	91.11857  	90.20242  	-19982.43389  	-4216.14066  	0.00449  	0.00002  	0.00410  	0.00454  	0.00538  	0.00000  	0.00000  
19.75739  	33.25580  	5.15090  	5.42015  	25.94646  	-1.18512  	0.02790  	0.30770  	0.30944  	-3.02442  	0.03095  	-0.08572  	-92.68804  	-1.33476  	91.32634  	90.81287  	-19983.94958  	-4215.97091  	0.00450  	0.00003  	0.00410  	0.00454  	0.00539  	0.00000  	0.00000  
20.75841  	33.25700  	5.14848  	5.41833  	25.95106  	-1.18512  	0.02922  	0.30854  	0.30564  	-3.02442  	0.03107  	-0.08578  	-92.64495  	-1.33779  	90.20501  	91.06228  	-19985.21232  	-4215.71671  	0.00449  	0.00002  	0.00410  	0.00456  	0.00540  	0.00000  	0.00000  
21.75978  	33.25927  	5.14715  	5.41694  	25.95709  	-1.18512  	0.02858  	0.30953  	0.31118  	-3.02442  	0.03126  	-0.08577  	-92.59731  	-1.33746  	91.84043  	91.35385  	-19987.02102  	-4215.55306  	0.00450  	0.00002  	0.00410  	0.00455  	0.00540  	0.00000  	0.00000  
22.76196  	33.26030  	5.14505  	5.41627  	25.96365  	-1.18512  	0.02783  	0.30871  	0.30892  	-3.02442  	0.02976  	-0.08575  	-92.52722  	-1.34454  	91.17348  	91.11257  	-19988.67392  	-4215.38729  	0.00449  	0.00002  	0.00410  	0.00453  	0.00540  	0.00000  	0.00000  
23.76265  	33.26163  	5.14499  	5.41551  	25.96976  	-1.18512  	0.03041  	0.31104  	0.30870  	-3.02442  	0.03237  	-0.08576  	-92.46677  	-1.34107  	91.10884  	91.80099  	-19990.29553  	-4215.33744  	0.00449  	0.00002  	0.00410  	0.00458  	0.00541  	0.00000  	0.00000  
24.76215  	33.26346  	5.14330  	5.41489  	25.97737  	-1.18512  	0.02820  	0.31058  	0.31293  	-3.02442  	0.02879  	-0.08585  	-92.39344  	-1.34637  	92.35830  	91.66482  	-19992.35237  	-4215.19908  	0.00450  	0.00002  	0.00409  	0.00454  	0.00541  	0.00000  	0.00000  
25.76297  	33.26506  	5.14194  	5.41369  	25.98362  	-1.18512  	0.02969  	0.31076  	0.31015  	-3.02442  	0.03044  	-0.08581  	-92.33456  	-1.34717  	91.53695  	91.71754  	-19994.05968  	-4215.04502  	0.00450  	0.00002  	0.00410  	0.00457  	0.00541  	0.00000  	0.00000  
26.76343  	33.26668  	5.14171  	5.41101  	25.99022  	-1.18512  	0.02816  	0.31376  	0.31449  	-3.02442  	0.03185  	-0.08580  	-92.27149  	-1.33503  	92.81777  	92.60366  	-19995.85113  	-4214.87029  	0.00450  	0.00002  	0.00410  	0.00454  	0.00542  	0.00000  	0.00000  
27.76290  	33.26783  	5.14110  	5.40992  	25.99805  	-1.18512  	0.02963  	0.31230  	0.30898  	-3.02442  	0.03237  	-0.08579  	-92.18676  	-1.33264  	91.19162  	92.17240  	-19997.80781  	-4214.76819  	0.00449  	0.00002  	0.00410  	0.00457  	0.00541  	0.00000  	0.00000  
28.76333  	33.26914  	5.13983  	5.41026  	26.00499  	-1.18512  	0.02914  	0.30828  	0.30671  	-3.02442  	0.03082  	-0.08579  	-92.11538  	-1.34066  	90.52331  	90.98580  	-19999.60546  	-4214.71278  	0.00449  	0.00002  	0.00410  	0.00456  	0.00540  	0.00000  	0.00000  
29.76332  	33.27077  	5.13821  	5.40990  	26.01038  	-1.18512  	0.02926  	0.30611  	0.31005  	-3.02442  	0.03223  	-0.08566  	-92.06779  	-1.34686  	91.50859  	90.34450  	-20001.13452  	-4214.59389  	0.00450  	0.00003  	0.00410  	0.00456  	0.00539  	0.00000  	0.00000  
30.76551  	33.27134  	5.13655  	5.40805  	26.01613  	-1.18512  	0.02781  	0.30550  	0.30676  	-3.02442  	0.03054  	-0.08577  	-92.00208  	-1.34595  	90.53764  	90.16498  	-20002.51325  	-4214.38289  	0.00449  	0.00002  	0.00410  	0.00453  	0.00538  	0.00000  	0.00000  
31.76644  	33.27239  	5.13496  	5.40689  	26.02035  	-1.18512  	0.03006  	0.30353  	0.30531  	-3.02442  	0.03068  	-0.08570  	-91.96201  	-1.34806  	90.10776  	89.58233  	-20003.65894  	-4214.21757  	0.00449  	0.00003  	0.00410  	0.00458  	0.00537  	0.00000  	0.00000  
32.76744  	33.27418  	5.13329  	5.40530  	26.02312  	-1.18512  	0.02816  	0.30225  	0.30110  	-3.02442  	0.03031  	-0.08582  	-91.94953  	-1.34849  	88.86576  	89.20552  	-20004.65394  	-4214.02219  	0.00448  	0.00002  	0.00410  	0.00454  	0.00537  	0.00000  	0.00000  
33.76936  	33.27407  	5.13325  	5.40325  	26.02523  	-1.18512  	0.02799  	0.29931  	0.30608  	-3.02442  	0.03319  	-0.08571  	-91.92152  	-1.33849  	90.33632  	88.33887  	-20005.08781  	-4213.89665  	0.00449  	0.00003  	0.00411  	0.00454  	0.00535  	0.00000  	0.00000  
34.76972  	33.27494  	5.13108  	5.40220  	26.02541  	-1.18512  	0.02874  	0.29515  	0.29663  	-3.02442  	0.03135  	-0.08578  	-91.93034  	-1.34405  	87.54772  	87.10921  	-20005.31675  	-4213.70365  	0.00447  	0.00002  	0.00410  	0.00455  	0.00533  	0.00000  	0.00000  
35.76894  	33.27499  	5.13078  	5.40166  	26.02495  	-1.18512  	0.02749  	0.29476  	0.29357  	-3.02442  	0.03268  	-0.08568  	-91.93679  	-1.34285  	86.64250  	86.99447  	-20005.23016  	-4213.65341  	0.00447  	0.00003  	0.00410  	0.00453  	0.00533  	0.00000  	0.00000  
36.77081  	33.27694  	5.13024  	5.40038  	26.02292  	-1.18512  	0.02705  	0.29189  	0.28933  	-3.02442  	0.02811  	-0.08577  	-91.98734  	-1.33921  	85.39288  	86.14940  	-20005.21377  	-4213.54354  	0.00446  	0.00002  	0.00409  	0.00452  	0.00532  	0.00000  	0.00000  
37.77102  	33.27746  	5.12903  	5.39852  	26.01920  	-1.18512  	0.02831  	0.29046  	0.29094  	-3.02442  	0.03058  	-0.08579  	-92.04120  	-1.33592  	85.86699  	85.72604  	-20004.51386  	-4213.35952  	0.00447  	0.00002  	0.00410  	0.00454  	0.00531  	0.00000  	0.00000  
38.77150  	33.27585  	5.12757  	5.39773  	26.01430  	-1.18512  	0.02773  	0.28771  	0.28871  	-3.02442  	0.03264  	-0.08582  	-92.08299  	-1.33929  	85.21070  	84.91445  	-20003.09554  	-4213.22440  	0.00446  	0.00002  	0.00410  	0.00453  	0.00530  	0.00000  	0.00000  
39.77267  	33.27670  	5.12683  	5.39727  	26.00919  	-1.18512  	0.02790  	0.28641  	0.28528  	-3.02442  	0.03025  	-0.08577  	-92.15849  	-1.34070  	84.19865  	84.53161  	-20002.16835  	-4213.15271  	0.00446  	0.00002  	0.00410  	0.00454  	0.00529  	0.00000  	0.00000  
40.77290  	33.27655  	5.12587  	5.39638  	26.00150  	-1.18512  	0.02753  	0.28661  	0.28676  	-3.02442  	0.02861  	-0.08575  	-92.25414  	-1.34104  	84.63376  	84.58911  	-20000.45954  	-4213.04142  	0.00446  	0.00002  	0.00409  	0.00453  	0.00530  	0.00000  	0.00000  
41.77456  	33.27592  	5.12469  	5.39462  	25.99394  	-1.18512  	0.02539  	0.28928  	0.29311  	-3.02442  	0.03076  	-0.08577  	-92.34222  	-1.33814  	86.50722  	85.37649  	-19998.67541  	-4212.86532  	0.00447  	0.00002  	0.00410  	0.00449  	0.00531  	0.00000  	0.00000  
42.77391  	33.27574  	5.12383  	5.39297  	25.98732  	-1.18512  	0.02723  	0.29141  	0.29364  	-3.02442  	0.02974  	-0.08573  	-92.42378  	-1.33424  	86.66431  	86.00608  	-19997.19439  	-4212.71447  	0.00447  	0.00003  	0.00410  	0.00452  	0.00532  	0.00000  	0.00000  
43.77572  	33.27628  	5.12320  	5.39252  	25.97912  	-1.18512  	0.02860  	0.29343  	0.29218  	-3.02442  	0.03201  	-0.08576  	-92.53471  	-1.33511  	86.23228  	86.60143  	-19995.52486  	-4212.64920  	0.00447  	0.00002  	0.00410  	0.00455  	0.00533  	0.00000  	0.00000  
44.77541  	33.27686  	5.12209  	5.39184  	25.97326  	-1.18512  	0.02793  	0.29589  	0.29984  	-3.02442  	0.02975  	-0.08570  	-92.61637  	-1.33725  	88.49475  	87.32883  	-19994.37447  	-4212.54221  	0.00448  	0.00003  	0.00410  	0.00454  	0.00534  	0.00000  	0.00000  
45.77542  	33.27768  	5.12080  	5.39056  	25.96891  	-1.18512  	0.02637  	0.29454  	0.29478  	-3.02442  	0.03182  	-0.08578  	-92.68198  	-1.33732  	87.00114  	86.93094  	-19993.60670  	-4212.38808  	0.00447  	0.00002  	0.00410  	0.00451  	0.00533  	0.00000  	0.00000  
46.77516  	33.27831  	5.11939  	5.39004  	25.96597  	-1.18512  	0.02915  	0.29667  	0.29556  	-3.02442  	0.03098  	-0.08572  	-92.72736  	-1.34173  	87.23117  	87.55995  	-19993.10135  	-4212.27198  	0.00447  	0.00003  	0.00410  	0.00456  	0.00534  	0.00000  	0.00000  
47.77699  	33.27950  	5.11788  	5.38866  	25.96261  	-1.18512  	0.02643  	0.29741  	0.29863  	-3.02442  	0.02551  	-0.08573  	-92.78511  	-1.34234  	88.13596  	87.77820  	-19992.63002  	-4212.09830  	0.00448  	0.00003  	0.00408  	0.00451  	0.00535  	0.00000  	0.00000  
48.77867  	33.27946  	5.11782  	5.38887  	25.96236  	-1.18512  	0.02904  	0.29906  	0.30245  	-3.02442  	0.03467  	-0.08582  	-92.78766  	-1.34370  	89.26488  	88.26508  	-19992.56700  	-4212.10759  	0.00448  	0.00002  	0.00411  	0.00456  	0.00535  	0.00000  	0.00000  
49.77976  	33.28069  	5.11721  	5.38774  	25.96235  	-1.18512  	0.02766  	0.30101  	0.30054  	-3.02442  	0.03036  	-0.08583  	-92.80341  	-1.34112  	88.69963  	88.83994  	-19992.83255  	-4212.00279  	0.00448  	0.00002  	0.00410  	0.00453  	0.00536  	0.00000  	0.00000  
50.77962  	33.28107  	5.11625  	5.38735  	25.96255  	-1.18512  	0.02667  	0.30081  	0.30806  	-3.02442  	0.02892  	-0.08567  	-92.80583  	-1.34395  	90.92144  	88.78146  	-19992.95775  	-4211.92211  	0.00449  	0.00003  	0.00409  	0.00451  	0.00536  	0.00000  	0.00000  
51.78025  	33.28237  	5.11474  	5.38677  	25.96421  	-1.18512  	0.02982  	0.30342  	0.30293  	-3.02442  	0.03167  	-0.08588  	-92.80125  	-1.34855  	89.40558  	89.55087  	-19993.60300  	-4211.79635  	0.00448  	0.00002  	0.00410  	0.00457  	0.00537  	0.00000  	0.00000  
52.78170  	33.28221  	5.11338  	5.38479  	25.96653  	-1.18512  	0.02939  	0.30496  	0.30715  	-3.02442  	0.02866  	-0.08575  	-92.77000  	-1.34547  	90.65113  	90.00575  	-19994.07450  	-4211.59623  	0.00449  	0.00002  	0.00409  	0.00456  	0.00538  	0.00000  	0.00000  
53.78278  	33.28415  	5.11254  	5.38384  	25.97087  	-1.18512  	0.02878  	0.30515  	0.31056  	-3.02442  	0.02964  	-0.08575  	-92.73955  	-1.34494  	91.65935  	90.06142  	-19995.44240  	-4211.48880  	0.00450  	0.00002  	0.00409  	0.00455  	0.00538  	0.00000  	0.00000  
54.78379  	33.28460  	5.11213  	5.38268  	25.97424  	-1.18512  	0.02886  	0.30739  	0.30906  	-3.02442  	0.03079  	-0.08579  	-92.70247  	-1.34124  	91.21605  	90.72193  	-19996.27330  	-4211.39435  	0.00449  	0.00002  	0.00410  	0.00455  	0.00539  	0.00000  	0.00000  
55.78487  	33.28577  	5.11075  	5.38242  	25.97969  	-1.18512  	0.02858  	0.30776  	0.31147  	-3.02442  	0.03151  	-0.08579  	-92.64835  	-1.34673  	91.92782  	90.83109  	-19997.71651  	-4211.29622  	0.00450  	0.00002  	0.00410  	0.00455  	0.00539  	0.00000  	0.00000  
56.78707  	33.28686  	5.11032  	5.38183  	25.98421  	-1.18512  	0.02849  	0.30769  	0.31063  	-3.02442  	0.03144  	-0.08575  	-92.60476  	-1.34600  	91.68035  	90.81135  	-19998.93810  	-4211.23546  	0.00450  	0.00002  	0.00410  	0.00455  	0.00539  	0.00000  	0.00000  
57.78699  	33.28809  	5.10864  	5.38040  	25.99048  	-1.18512  	0.02952  	0.31029  	0.31033  	-3.02442  	0.03186  	-0.08579  	-92.54089  	-1.34720  	91.58983  	91.57987  	-20000.57400  	-4211.04842  	0.00450  	0.00002  	0.00410  	0.00457  	0.00540  	0.00000  	0.00000  
58.78892  	33.28911  	5.10782  	5.37896  	25.99633  	-1.18512  	0.02729  	0.30982  	0.31614  	-3.02442  	0.03157  	-0.08571  	-92.47969  	-1.34418  	93.30562  	91.43877  	-20002.06884  	-4210.91266  	0.00451  	0.00003  	0.00410  	0.00452  	0.00540  	0.00000  	0.00000  
59.78881  	33.29035  	5.10644  	5.37740  	26.00313  	-1.18512  	0.02928  	0.31169  	0.31223  	-3.02442  	0.03145  	-0.08571  	-92.40918  	-1.34328  	92.14983  	91.99139  	-20003.82172  	-4210.73626  	0.00450  	0.00003  	0.00410  	0.00456  	0.00541  	0.00000  	0.00000  
60.78950  	33.29216  	5.10542  	5.37685  	26.00955  	-1.18512  	0.03022  	0.31143  	0.30975  	-3.02442  	0.03099  	-0.08572  	-92.35090  	-1.34559  	91.41970  	91.91530  	-20005.61577  	-4210.64206  	0.00450  	0.00003  	0.00410  	0.00458  	0.00541  	0.00000  	0.00000  
61.78958  	33.29324  	5.10513  	5.37620  	26.01602  	-1.18512  	0.02826  	0.31098  	0.31349  	-3.02442  	0.03096  	-0.08576  	-92.28263  	-1.34381  	92.52393  	91.78367  	-20007.26039  	-4210.58584  	0.00450  	0.00002  	0.00410  	0.00454  	0.00541  	0.00000  	0.00000  
62.78946  	33.29403  	5.10376  	5.37597  	26.02314  	-1.18512  	0.03067  	0.30773  	0.30988  	-3.02442  	0.03215  	-0.08579  	-92.20217  	-1.34943  	91.45784  	90.82342  	-20008.98367  	-4210.48962  	0.00450  	0.00002  	0.00410  	0.00459  	0.00539  	0.00000  	0.00000  
63.78961  	33.29600  	5.10255  	5.37377  	26.02994  	-1.18512  	0.02882  	0.30794  	0.31081  	-3.02442  	0.03430  	-0.08574  	-92.14119  	-1.34453  	91.73228  	90.88636  	-20010.89451  	-4210.28572  	0.00450  	0.00003  	0.00411  	0.00455  	0.00539  	0.00000  	0.00000  
64.78888  	33.29758  	5.10131  	5.37292  	26.03588  	-1.18512  	0.02810  	0.30617  	0.30492  	-3.02442  	0.02884  	-0.08575  	-92.08592  	-1.34651  	89.99506  	90.36337  	-20012.53259  	-4210.15990  	0.00449  	0.00002  	0.00409  	0.00454  	0.00539  	0.00000  	0.00000  
65.78969  	33.29926  	5.10016  	5.37231  	26.04037  	-1.18512  	0.02929  	0.30354  	0.31426  	-3.02442  	0.03082  	-0.08573  	-92.05029  	-1.34914  	92.75100  	89.58583  	-20013.87883  	-4210.05397  	0.00450  	0.00003  	0.00410  	0.00456  	0.00537  	0.00000  	0.00000  
66.78990  	33.29866  	5.09880  	5.37113  	26.04369  	-1.18512  	0.02824  	0.30322  	0.30008  	-3.02442  	0.03098  	-0.08588  	-92.00056  	-1.35006  	88.56583  	89.49099  	-20014.47046  	-4209.90208  	0.00448  	0.00002  	0.00410  	0.00454  	0.00537  	0.00000  	0.00000  
67.79180  	33.30131  	5.09719  	5.37025  	26.04582  	-1.18512  	0.02999  	0.29979  	0.30214  	-3.02442  	0.03208  	-0.08577  	-92.00718  	-1.35367  	89.17241  	88.47948  	-20015.51283  	-4209.75222  	0.00448  	0.00002  	0.00410  	0.00458  	0.00536  	0.00000  	0.00000  
68.79189  	33.30252  	5.09510  	5.36863  	26.04702  	-1.18512  	0.02759  	0.29900  	0.29600  	-3.02442  	0.03077  	-0.08579  	-92.00745  	-1.35599  	87.36249  	88.24505  	-20016.03842  	-4209.53040  	0.00447  	0.00002  	0.00410  	0.00453  	0.00535  	0.00000  	0.00000  
69.79272  	33.30287  	5.09413  	5.36679  	26.04789  	-1.18512  	0.02824  	0.29561  	0.29587  	-3.02442  	0.03191  	-0.08581  	-92.00100  	-1.35167  	87.32151  	87.24690  	-20016.30273  	-4209.36116  	0.00447  	0.00002  	0.00410  	0.00454  	0.00534  	0.00000  	0.00000  
70.79216  	33.30323  	5.09250  	5.36453  	26.04628  	-1.18512  	0.02853  	0.29258  	0.28879  	-3.02442  	0.03035  	-0.08583  	-92.02606  	-1.34858  	85.23391  	86.35286  	-20016.03053  	-4209.12806  	0.00446  	0.00002  	0.00410  	0.00455  	0.00532  	0.00000  	0.00000  
71.79210  	33.30297  	5.09065  	5.36301  	26.04394  	-1.18512  	0.02871  	0.29034  	0.29159  	-3.02442  	0.03169  	-0.08577  	-92.05246  	-1.35019  	86.05874  	85.69206  	-20015.46338  	-4208.92621  	0.00447  	0.00002  	0.00410  	0.00455  	0.00531  	0.00000  	0.00000  
72.79380  	33.30392  	5.08964  	5.36107  	26.04055  	-1.18512  	0.02830  	0.28909  	0.28439  	-3.02442  	0.03124  	-0.08582  	-92.10759  	-1.34562  	83.93512  	85.32317  	-20014.93198  	-4208.74917  	0.00446  	0.00002  	0.00410  	0.00454  	0.00531  	0.00000  	0.00000  
73.79483  	33.30418  	5.08802  	5.35993  	26.03594  	-1.18512  	0.02640  	0.28527  	0.28970  	-3.02442  	0.03011  	-0.08577  	-92.16941  	-1.34797  	85.50059  	84.19375  	-20013.98543  	-4208.58396  	0.00446  	0.00002  	0.00410  	0.00451  	0.00529  	0.00000  	0.00000  
74.79747  	33.30499  	5.08691  	5.35897  	26.02884  	-1.18512  	0.02808  	0.28591  	0.28486  	-3.02442  	0.02956  	-0.08576  	-92.26971  	-1.34871  	84.07230  	84.38397  	-20012.61429  	-4208.45896  	0.00446  	0.00002  	0.00409  	0.00454  	0.00529  	0.00000  	0.00000  
75.79740  	33.30501  	5.08638  	5.35864  	26.02179  	-1.18512  	0.02665  	0.28705  	0.28829  	-3.02442  	0.03210  	-0.08579  	-92.35944  	-1.34968  	85.08698  	84.71828  	-20011.08223  	-4208.40804  	0.00446  	0.00002  	0.00410  	0.00451  	0.00530  	0.00000  	0.00000  
76.79778  	33.30555  	5.08592  	5.35679  	26.01257  	-1.18512  	0.02565  	0.28908  	0.29159  	-3.02442  	0.03265  	-0.08569  	-92.48312  	-1.34279  	86.05835  	85.31848  	-20009.19108  	-4208.26931  	0.00447  	0.00003  	0.00410  	0.00449  	0.00531  	0.00000  	0.00000  
77.79874  	33.30618  	5.08472  	5.35655  	26.00493  	-1.18512  	0.02677  	0.29258  	0.28853  	-3.02442  	0.02957  	-0.08578  	-92.58818  	-1.34760  	85.15701  	86.35178  	-20007.66304  	-4208.18306  	0.00446  	0.00002  	0.00409  	0.00451  	0.00532  	0.00000  	0.00000  
78.79848  	33.30629  	5.08343  	5.35440  	25.99791  	-1.18512  	0.02750  	0.29357  	0.29519  	-3.02442  	0.03215  	-0.08580  	-92.67857  	-1.34330  	87.12350  	86.64342  	-20006.15909  	-4207.97649  	0.00447  	0.00002  	0.00410  	0.00453  	0.00533  	0.00000  	0.00000  
79.79844  	33.30709  	5.08209  	5.35296  	25.99229  	-1.18512  	0.02726  	0.29425  	0.29672  	-3.02442  	0.03170  	-0.08571  	-92.76005  	-1.34278  	87.57416  	86.84529  	-20005.10879  	-4207.81005  	0.00447  	0.00003  	0.00410  	0.00452  	0.00533  	0.00000  	0.00000  
80.79876  	33.30776  	5.08097  	5.35183  	25.98730  	-1.18512  	0.02812  	0.29675  	0.30141  	-3.02442  	0.03315  	-0.08575  	-92.83188  	-1.34278  	88.95661  	87.58277  	-20004.16705  	-4207.67494  	0.00448  	0.00002  	0.00411  	0.00454  	0.00534  	0.00000  	0.00000  
81.79961  	33.30866  	5.08036  	5.35068  	25.98361  	-1.18512  	0.02905  	0.29757  	0.30023  	-3.02442  	0.03181  	-0.08584  	-92.89008  	-1.34005  	88.61075  	87.82496  	-20003.55891  	-4207.56975  	0.00448  	0.00002  	0.00410  	0.00456  	0.00535  	0.00000  	0.00000  
82.80008  	33.30889  	5.07937  	5.34984  	25.98250  	-1.18512  	0.02720  	0.29840  	0.30328  	-3.02442  	0.03031  	-0.08571  	-92.90716  	-1.34081  	89.50859  	88.06971  	-20003.36571  	-4207.45957  	0.00449  	0.00003  	0.00410  	0.00452  	0.00535  	0.00000  	0.00000  
83.80044  	33.31007  	5.07770  	5.34944  	25.98245  	-1.18512  	0.02886  	0.30039  	0.30269  	-3.02442  	0.03169  	-0.08581  	-92.92284  	-1.34713  	89.33652  	88.65639  	-20003.61260  	-4207.33565  	0.00448  	0.00002  	0.00410  	0.00455  	0.00536  	0.00000  	0.00000  
84.80048  	33.31146  	5.07644  	5.34775  	25.98374  	-1.18512  	0.02869  	0.30368  	0.30040  	-3.02442  	0.03158  	-0.08577  	-92.92406  	-1.34500  	88.65981  	89.62760  	-20004.19755  	-4207.15903  	0.00448  	0.00002  	0.00410  	0.00455  	0.00537  	0.00000  	0.00000  
85.80083  	33.31252  	5.07586  	5.34828  	25.98570  	-1.18512  	0.02951  	0.30269  	0.30304  	-3.02442  	0.03001  	-0.08573  	-92.91264  	-1.35049  	89.43822  	89.33546  	-20004.85455  	-4207.15621  	0.00448  	0.00003  	0.00410  	0.00457  	0.00537  	0.00000  	0.00000  
86.80243  	33.31311  	5.07553  	5.34881  	25.98885  	-1.18512  	0.02806  	0.30415  	0.30668  	-3.02442  	0.03206  	-0.08571  	-92.88031  	-1.35475  	90.51336  	89.76735  	-20005.66962  	-4207.16771  	0.00449  	0.00003  	0.00410  	0.00454  	0.00538  	0.00000  	0.00000  
87.80198  	33.31402  	5.07396  	5.34573  	25.99175  	-1.18512  	0.02760  	0.30440  	0.30692  	-3.02442  	0.03044  	-0.08581  	-92.85509  	-1.34727  	90.58433  	89.84066  	-20006.49813  	-4206.88918  	0.00449  	0.00002  	0.00410  	0.00453  	0.00538  	0.00000  	0.00000  
88.80266  	33.31582  	5.07314  	5.34505  	25.99684  	-1.18512  	0.02841  	0.30754  	0.30462  	-3.02442  	0.02950  	-0.08575  	-92.81348  	-1.34798  	89.90639  	90.76641  	-20008.00055  	-4206.79882  	0.00449  	0.00002  	0.00409  	0.00455  	0.00539  	0.00000  	0.00000  
89.80229  	33.31619  	5.07235  	5.34419  	26.00176  	-1.18512  	0.02858  	0.30818  	0.30840  	-3.02442  	0.03140  	-0.08579  	-92.75572  	-1.34761  	91.02066  	90.95464  	-20009.15300  	-4206.69989  	0.00449  	0.00002  	0.00410  	0.00455  	0.00540  	0.00000  	0.00000  
90.80180  	33.31670  	5.07114  	5.34331  	26.00773  	-1.18512  	0.02930  	0.30849  	0.30369  	-3.02442  	0.03046  	-0.08577  	-92.68661  	-1.34925  	89.63076  	91.04876  	-20010.56581  	-4206.57472  	0.00449  	0.00002  	0.00410  	0.00456  	0.00540  	0.00000  	0.00000  
91.80237  	33.31814  	5.07097  	5.34305  	26.01253  	-1.18512  	0.02825  	0.31108  	0.31040  	-3.02442  	0.03290  	-0.08587  	-92.64381  	-1.34878  	91.61027  	91.81089  	-20011.92526  	-4206.54930  	0.00450  	0.00002  	0.00411  	0.00454  	0.00541  	0.00000  	0.00000  
92.80246  	33.31953  	5.06953  	5.34251  	26.02016  	-1.18512  	0.02819  	0.30954  	0.30794  	-3.02442  	0.02913  	-0.08578  	-92.56490  	-1.35328  	90.88506  	91.35818  	-20013.89130  	-4206.43086  	0.00449  	0.00002  	0.00409  	0.00454  	0.00540  	0.00000  	0.00000  
93.80399  	33.32078  	5.06814  	5.34002  	26.02530  	-1.18512  	0.02833  	0.30962  	0.31090  	-3.02442  	0.03052  	-0.08573  	-92.51568  	-1.34781  	91.75900  	91.38126  	-20015.28395  	-4206.19836  	0.00450  	0.00003  	0.00410  	0.00454  	0.00540  	0.00000  	0.00000  
94.80524  	33.32238  	5.06697  	5.33943  	26.03164  	-1.18512  	0.02792  	0.31320  	0.31233  	-3.02442  	0.02851  	-0.08572  	-92.45545  	-1.35069  	92.18132  	92.43659  	-20017.01420  	-4206.09244  	0.00450  	0.00003  	0.00409  	0.00454  	0.00542  	0.00000  	0.00000  
95.80551  	33.32233  	5.06688  	5.33943  	26.03884  	-1.18512  	0.02890  	0.31104  	0.31385  	-3.02442  	0.02956  	-0.08572  	-92.36357  	-1.35112  	92.62936  	91.79917  	-20018.57011  	-4206.08715  	0.00450  	0.00003  	0.00409  	0.00455  	0.00541  	0.00000  	0.00000  
96.80758  	33.32400  	5.06586  	5.33740  	26.04366  	-1.18512  	0.02861  	0.31215  	0.30923  	-3.02442  	0.03148  	-0.08572  	-92.32369  	-1.34616  	91.26644  	92.12657  	-20019.98622  	-4205.90410  	0.00449  	0.00003  	0.00410  	0.00455  	0.00541  	0.00000  	0.00000  
97.80868  	33.32510  	5.06526  	5.33661  	26.05005  	-1.18512  	0.03033  	0.30923  	0.30757  	-3.02442  	0.02996  	-0.08580  	-92.25666  	-1.34521  	90.77468  	91.26556  	-20021.61808  	-4205.82094  	0.00449  	0.00002  	0.00410  	0.00458  	0.00540  	0.00000  	0.00000  
98.80880  	33.32620  	5.06441  	5.33662  	26.05644  	-1.18512  	0.02845  	0.30719  	0.31877  	-3.02442  	0.02893  	-0.08572  	-92.18964  	-1.34942  	94.08197  	90.66499  	-20023.25224  	-4205.77042  	0.00451  	0.00003  	0.00409  	0.00455  	0.00539  	0.00000  	0.00000  
99.81067  	33.32687  	5.06303  	5.33564  	26.06213  	-1.18512  	0.02888  	0.30805  	0.30928  	-3.02442  	0.02943  	-0.08573  	-92.12597  	-1.35140  	91.28038  	90.91751  	-20024.63694  	-4205.62912  	0.00449  	0.00003  	0.00409  	0.00455  	0.00539  	0.00000  	0.00000  
100.81016  	33.32799  	5.06228  	5.33491  	26.06723  	-1.18512  	0.02891  	0.30499  	0.30161  	-3.02442  	0.02902  	-0.08583  	-92.07552  	-1.35153  	89.01824  	90.01574  	-20025.99399  	-4205.54072  	0.00448  	0.00002  	0.00409  	0.00456  	0.00538  	0.00000  	0.00000  
101.81007  	33.32866  	5.06228  	5.33437  	26.07038  	-1.18512  	0.02764  	0.30263  	0.30878  	-3.02442  	0.03140  	-0.08573  	-92.04410  	-1.34882  	91.13338  	89.31889  	-20026.82582  	-4205.50787  	0.00449  	0.00003  	0.00410  	0.00453  	0.00537  	0.00000  	0.00000  
102.81076  	33.32896  	5.06195  	5.33436  	26.07215  	-1.18512  	0.02951  	0.30223  	0.30659  	-3.02442  	0.03097  	-0.08572  	-92.02552  	-1.35042  	90.48562  	89.19903  	-20027.27654  	-4205.48739  	0.00449  	0.00003  	0.00410  	0.00457  	0.00537  	0.00000  	0.00000  
103.81166  	33.32866  	5.06065  	5.33412  	26.07417  	-1.18512  	0.02793  	0.29857  	0.30452  	-3.02442  	0.03201  	-0.08568  	-91.99607  	-1.35573  	89.87522  	88.12042  	-20027.65336  	-4205.39538  	0.00449  	0.00003  	0.00410  	0.00454  	0.00535  	0.00000  	0.00000  
104.81246  	33.32826  	5.06126  	5.33410  	26.07417  	-1.18512  	0.02718  	0.29648  	0.29820  	-3.02442  	0.03435  	-0.08559  	-91.99092  	-1.35254  	88.00951  	87.50210  	-20027.56561  	-4205.43072  	0.00448  	0.00003  	0.00411  	0.00452  	0.00534  	0.00000  	0.00000  
105.81320  	33.32854  	5.06072  	5.33272  	26.07296  	-1.18512  	0.02832  	0.29649  	0.29627  	-3.02442  	0.03257  	-0.08580  	-92.00994  	-1.34842  	87.44039  	87.50496  	-20027.36157  	-4205.31598  	0.00447  	0.00002  	0.00410  	0.00454  	0.00534  	0.00000  	0.00000  
106.81376  	33.32842  	5.06026  	5.33195  	26.07008  	-1.18512  	0.02791  	0.29197  	0.29699  	-3.02442  	0.03210  	-0.08575  	-92.04490  	-1.34691  	87.65467  	86.17091  	-20026.70700  	-4205.24174  	0.00448  	0.00002  	0.00410  	0.00454  	0.00532  	0.00000  	0.00000  
107.81385  	33.32898  	5.06024  	5.33104  	26.06708  	-1.18512  	0.02816  	0.28847  	0.29134  	-3.02442  	0.03006  	-0.08578  	-92.09016  	-1.34245  	85.98688  	85.14005  	-20026.17580  	-4205.18613  	0.00447  	0.00002  	0.00410  	0.00454  	0.00530  	0.00000  	0.00000  
108.81551  	33.32924  	5.05882  	5.33016  	26.06169  	-1.18512  	0.02878  	0.28827  	0.28446  	-3.02442  	0.03280  	-0.08587  	-92.16171  	-1.34515  	83.95617  	85.08082  	-20025.05752  	-4205.04867  	0.00446  	0.00002  	0.00410  	0.00455  	0.00530  	0.00000  	0.00000  
109.81542  	33.32841  	5.05773  	5.33037  	26.05537  	-1.18512  	0.02635  	0.28347  	0.28956  	-3.02442  	0.03088  	-0.08574  	-92.23145  	-1.35160  	85.46030  	83.66404  	-20023.50130  	-4204.99527  	0.00446  	0.00003  	0.00410  	0.00451  	0.00528  	0.00000  	0.00000  
110.81542  	33.32794  	5.05761  	5.32858  	26.04837  	-1.18512  	0.02870  	0.28380  	0.28400  	-3.02442  	0.03035  	-0.08584  	-92.31427  	-1.34334  	83.81979  	83.76064  	-20021.87194  	-4204.88110  	0.00445  	0.00002  	0.00410  	0.00455  	0.00528  	0.00000  	0.00000  
111.81558  	33.32733  	5.05776  	5.32833  	26.03850  	-1.18512  	0.02683  	0.28678  	0.28499  	-3.02442  	0.03096  	-0.08579  	-92.43167  	-1.34136  	84.11158  	84.63951  	-20019.58613  	-4204.87508  	0.00446  	0.00002  	0.00410  	0.00452  	0.00530  	0.00000  	0.00000  
112.81542  	33.32723  	5.05581  	5.32711  	26.03017  	-1.18512  	0.02759  	0.28898  	0.29096  	-3.02442  	0.03172  	-0.08575  	-92.53611  	-1.34493  	85.87454  	85.28850  	-20017.75163  	-4204.68542  	0.00447  	0.00002  	0.00410  	0.00453  	0.00531  	0.00000  	0.00000  
