11/04/2024 11:10:26Time	T_hot_in(C)	T_cold_in(C)	T_cold_out(C)	T_hot_out(C)	mdot_cold(kg/s)	ASFASIFUAS(kg/s)	Diferencial_cold(bar)	Diferencial_hot(bar)	mdot_hot(kg/s)	ABS_cold(bar)	ABS_hot(bar)	q_cold(kW)	q_hot(kW)	ASFASYFY	Tau_cold_haste	Re_hot	Re_cold	U_global	PSIG_cold(bar)	R_fouling	PSIG_hot(bar)	PSID_hot(bar)	m_dot_hot	PSID_cold(bar)	m_dot_cold
1.74437  	0.00000  	0.00000  	0.00000  	0.00000  	-1.18512  	-0.20833  	-0.86278  	-2.50000  	-3.02442  	-1.25000  	-0.08628  	-0.00000  	-0.00000  	-737.84722  	-254.63905  	-9234.48090  	-3618.55272  	0.00000  	0.00000  	0.00000  	0.00000  	0.00000  	0.00000  	0.00000  
2.74400  	33.36640  	4.84936  	5.04594  	26.09723  	-1.18512  	0.01783  	0.09651  	0.08348  	-3.02442  	0.00553  	-0.08581  	-92.19260  	-0.97453  	24.63798  	28.48333  	-20040.90597  	-4175.54241  	0.00413  	0.00002  	0.00402  	0.00434  	0.00442  	0.00000  	0.00000  
3.74482  	33.36795  	4.84988  	5.04638  	26.10154  	-1.18512  	0.01747  	0.09821  	0.08578  	-3.02442  	0.00501  	-0.08572  	-92.15760  	-0.97414  	25.31843  	28.98597  	-20042.18227  	-4175.59999  	0.00414  	0.00003  	0.00402  	0.00434  	0.00443  	0.00000  	0.00000  
4.74472  	33.36875  	4.84979  	5.04666  	26.10897  	-1.18512  	0.01553  	0.09591  	0.08861  	-3.02442  	0.00562  	-0.08566  	-92.07350  	-0.97600  	26.15227  	28.30688  	-20043.97778  	-4175.61090  	0.00414  	0.00003  	0.00402  	0.00430  	0.00442  	0.00000  	0.00000  
5.74408  	33.36951  	4.85012  	5.04697  	26.11558  	-1.18512  	0.01731  	0.09800  	0.09203  	-3.02442  	0.00803  	-0.08572  	-91.99918  	-0.97587  	27.16293  	28.92232  	-20045.58392  	-4175.64957  	0.00415  	0.00003  	0.00403  	0.00433  	0.00443  	0.00000  	0.00000  
6.74445  	33.37056  	4.85063  	5.04706  	26.12231  	-1.18512  	0.01700  	0.09948  	0.08112  	-3.02442  	0.00907  	-0.08579  	-91.92714  	-0.97380  	23.94215  	29.36009  	-20047.28084  	-4175.68500  	0.00413  	0.00002  	0.00403  	0.00433  	0.00443  	0.00000  	0.00000  
7.74447  	33.37110  	4.85039  	5.04764  	26.13018  	-1.18512  	0.01628  	0.09945  	0.08315  	-3.02442  	0.00583  	-0.08573  	-91.83422  	-0.97784  	24.54082  	29.35202  	-20049.11572  	-4175.70489  	0.00413  	0.00003  	0.00402  	0.00431  	0.00443  	0.00000  	0.00000  
8.74433  	33.37159  	4.85109  	5.04794  	26.13630  	-1.18512  	0.01844  	0.09691  	0.08719  	-3.02442  	0.00709  	-0.08577  	-91.76279  	-0.97584  	25.73218  	28.60305  	-20050.55445  	-4175.76502  	0.00414  	0.00002  	0.00402  	0.00435  	0.00442  	0.00000  	0.00000  
9.74411  	33.37346  	4.85218  	5.04891  	26.14297  	-1.18512  	0.01651  	0.09797  	0.08388  	-3.02442  	0.00996  	-0.08577  	-91.70198  	-0.97528  	24.75644  	28.91425  	-20052.41709  	-4175.88766  	0.00413  	0.00002  	0.00403  	0.00432  	0.00443  	0.00000  	0.00000  
10.74447  	33.37451  	4.85277  	5.04930  	26.14936  	-1.18512  	0.01779  	0.09719  	0.08778  	-3.02442  	0.00875  	-0.08582  	-91.63406  	-0.97428  	25.90661  	28.68491  	-20054.04015  	-4175.94564  	0.00414  	0.00002  	0.00403  	0.00434  	0.00442  	0.00000  	0.00000  
11.74511  	33.37507  	4.85366  	5.04971  	26.15574  	-1.18512  	0.01746  	0.09773  	0.08374  	-3.02442  	0.00876  	-0.08580  	-91.56039  	-0.97186  	24.71375  	28.84490  	-20055.55254  	-4176.02355  	0.00413  	0.00002  	0.00403  	0.00434  	0.00443  	0.00000  	0.00000  
12.74522  	33.37610  	4.85316  	5.04985  	26.16033  	-1.18512  	0.01599  	0.09504  	0.08802  	-3.02442  	0.00488  	-0.08571  	-91.51522  	-0.97503  	25.97711  	28.04994  	-20056.77965  	-4176.00195  	0.00414  	0.00003  	0.00402  	0.00431  	0.00441  	0.00000  	0.00000  
13.74748  	33.37639  	4.85269  	5.05052  	26.16435  	-1.18512  	0.01836  	0.09697  	0.08905  	-3.02442  	0.00980  	-0.08571  	-91.46789  	-0.98076  	26.28142  	28.61924  	-20057.71764  	-4176.01377  	0.00414  	0.00003  	0.00403  	0.00435  	0.00442  	0.00000  	0.00000  
14.74844  	33.37743  	4.85419  	5.05062  	26.16757  	-1.18512  	0.01691  	0.09496  	0.08812  	-3.02442  	0.00904  	-0.08580  	-91.44020  	-0.97379  	26.00716  	28.02560  	-20058.64924  	-4176.10954  	0.00414  	0.00002  	0.00403  	0.00432  	0.00441  	0.00000  	0.00000  
15.74917  	33.37773  	4.85390  	5.05061  	26.17092  	-1.18512  	0.01785  	0.09462  	0.08599  	-3.02442  	0.01065  	-0.08568  	-91.40158  	-0.97516  	25.37832  	27.92672  	-20059.44420  	-4176.09175  	0.00414  	0.00003  	0.00403  	0.00434  	0.00441  	0.00000  	0.00000  
16.75144  	33.37864  	4.85339  	5.05135  	26.17417  	-1.18512  	0.01809  	0.09565  	0.08479  	-3.02442  	0.00739  	-0.08577  	-91.37184  	-0.98134  	25.02542  	28.23000  	-20060.35044  	-4176.10509  	0.00414  	0.00002  	0.00402  	0.00435  	0.00442  	0.00000  	0.00000  
17.75162  	33.37856  	4.85336  	5.05110  	26.17537  	-1.18512  	0.01719  	0.09449  	0.08075  	-3.02442  	0.00948  	-0.08570  	-91.35562  	-0.98028  	23.83313  	27.88729  	-20060.59380  	-4176.08886  	0.00413  	0.00003  	0.00403  	0.00433  	0.00441  	0.00000  	0.00000  
18.75155  	33.37862  	4.85471  	5.05108  	26.17578  	-1.18512  	0.01711  	0.09463  	0.08272  	-3.02442  	0.00524  	-0.08568  	-91.35108  	-0.97350  	24.41435  	27.92917  	-20060.69786  	-4176.16760  	0.00413  	0.00003  	0.00402  	0.00433  	0.00441  	0.00000  	0.00000  
19.75168  	33.37888  	4.85526  	5.05205  	26.17522  	-1.18512  	0.01748  	0.09422  	0.08535  	-3.02442  	0.00808  	-0.08574  	-91.36144  	-0.97561  	25.19142  	27.80933  	-20060.63230  	-4176.25827  	0.00414  	0.00003  	0.00403  	0.00434  	0.00441  	0.00000  	0.00000  
20.75237  	33.37945  	4.85497  	5.05258  	26.17518  	-1.18512  	0.01704  	0.09434  	0.07934  	-3.02442  	0.00655  	-0.08581  	-91.36922  	-0.97962  	23.41735  	27.84248  	-20060.74812  	-4176.27252  	0.00413  	0.00002  	0.00402  	0.00433  	0.00441  	0.00000  	0.00000  
21.75258  	33.37912  	4.85543  	5.05221  	26.17353  	-1.18512  	0.01657  	0.09447  	0.07807  	-3.02442  	0.00792  	-0.08579  	-91.38599  	-0.97552  	23.04160  	27.88150  	-20060.31598  	-4176.27819  	0.00412  	0.00002  	0.00403  	0.00432  	0.00441  	0.00000  	0.00000  
22.75297  	33.37888  	4.85516  	5.05287  	26.17142  	-1.18512  	0.01658  	0.09458  	0.08536  	-3.02442  	0.00603  	-0.08586  	-91.40965  	-0.98012  	25.19428  	27.91328  	-20059.80208  	-4176.30109  	0.00414  	0.00002  	0.00402  	0.00432  	0.00441  	0.00000  	0.00000  
23.75394  	33.37837  	4.85614  	5.05328  	26.16845  	-1.18512  	0.01485  	0.09159  	0.07742  	-3.02442  	0.00449  	-0.08582  	-91.44087  	-0.97734  	22.84905  	27.03268  	-20059.04517  	-4176.38394  	0.00412  	0.00002  	0.00401  	0.00429  	0.00440  	0.00000  	0.00000  
24.75448  	33.37864  	4.85601  	5.05380  	26.16402  	-1.18512  	0.01600  	0.09145  	0.07642  	-3.02442  	0.00679  	-0.08577  	-91.50047  	-0.98050  	22.55573  	26.99120  	-20058.13635  	-4176.40711  	0.00412  	0.00002  	0.00402  	0.00431  	0.00440  	0.00000  	0.00000  
25.75482  	33.37856  	4.85666  	5.05408  	26.16082  	-1.18512  	0.01620  	0.09114  	0.07443  	-3.02442  	0.00697  	-0.08578  	-91.53998  	-0.97866  	21.96639  	26.89935  	-20057.42190  	-4176.46302  	0.00412  	0.00002  	0.00402  	0.00431  	0.00440  	0.00000  	0.00000  
26.75434  	33.37800  	4.85705  	5.05317  	26.15618  	-1.18512  	0.01584  	0.08910  	0.08030  	-3.02442  	0.00810  	-0.08577  	-91.59167  	-0.97226  	23.70084  	26.29611  	-20056.28844  	-4176.43152  	0.00413  	0.00002  	0.00403  	0.00430  	0.00439  	0.00000  	0.00000  
27.75454  	33.37677  	4.85897  	5.05456  	26.14965  	-1.18512  	0.01468  	0.08882  	0.07485  	-3.02442  	0.00681  	-0.08578  	-91.65887  	-0.96961  	22.09189  	26.21371  	-20054.59644  	-4176.62949  	0.00412  	0.00002  	0.00402  	0.00428  	0.00438  	0.00000  	0.00000  
28.75483  	33.37720  	4.85705  	5.05458  	26.14264  	-1.18512  	0.01652  	0.09068  	0.07755  	-3.02442  	0.00839  	-0.08575  	-91.75332  	-0.97920  	22.88749  	26.76265  	-20053.15950  	-4176.51581  	0.00412  	0.00002  	0.00403  	0.00432  	0.00439  	0.00000  	0.00000  
29.75514  	33.37619  	4.85689  	5.05466  	26.13747  	-1.18512  	0.01632  	0.09056  	0.08313  	-3.02442  	0.00798  	-0.08577  	-91.80611  	-0.98040  	24.53393  	26.72877  	-20051.81447  	-4176.51078  	0.00413  	0.00002  	0.00403  	0.00431  	0.00439  	0.00000  	0.00000  
30.75505  	33.37605  	4.85745  	5.05490  	26.13045  	-1.18512  	0.01650  	0.09309  	0.07580  	-3.02442  	0.00705  	-0.08571  	-91.89341  	-0.97884  	22.37090  	27.47340  	-20050.25202  	-4176.55930  	0.00412  	0.00003  	0.00402  	0.00432  	0.00440  	0.00000  	0.00000  
31.75557  	33.37512  	4.85931  	5.05604  	26.12461  	-1.18512  	0.01525  	0.09271  	0.08116  	-3.02442  	0.00906  	-0.08576  	-91.95555  	-0.97526  	23.95383  	27.36232  	-20048.77479  	-4176.73743  	0.00413  	0.00002  	0.00403  	0.00429  	0.00440  	0.00000  	0.00000  
32.75646  	33.37449  	4.85907  	5.05597  	26.11936  	-1.18512  	0.01679  	0.09448  	0.08506  	-3.02442  	0.00914  	-0.08581  	-92.01411  	-0.97611  	25.10341  	27.88400  	-20047.49598  	-4176.71855  	0.00414  	0.00002  	0.00403  	0.00432  	0.00441  	0.00000  	0.00000  
33.75744  	33.37443  	4.85872  	5.05577  	26.11603  	-1.18512  	0.01626  	0.09519  	0.08340  	-3.02442  	0.00755  	-0.08564  	-92.05551  	-0.97688  	24.61573  	28.09338  	-20046.75487  	-4176.68621  	0.00413  	0.00003  	0.00402  	0.00431  	0.00441  	0.00000  	0.00000  
34.75745  	33.37452  	4.85954  	5.05648  	26.11423  	-1.18512  	0.01598  	0.09647  	0.08240  	-3.02442  	0.00627  	-0.08569  	-92.07947  	-0.97631  	24.31993  	28.47156  	-20046.38210  	-4176.77790  	0.00413  	0.00003  	0.00402  	0.00431  	0.00442  	0.00000  	0.00000  
35.75840  	33.37324  	4.86012  	5.05730  	26.11424  	-1.18512  	0.01550  	0.09617  	0.08641  	-3.02442  	0.00528  	-0.08571  	-92.06315  	-0.97752  	25.50213  	28.38471  	-20046.10327  	-4176.86081  	0.00414  	0.00003  	0.00402  	0.00430  	0.00442  	0.00000  	0.00000  
36.75850  	33.37290  	4.85984  	5.05778  	26.11442  	-1.18512  	0.01505  	0.09578  	0.09171  	-3.02442  	0.00788  	-0.08573  	-92.05650  	-0.98124  	27.06674  	28.26805  	-20046.06961  	-4176.87267  	0.00415  	0.00003  	0.00403  	0.00429  	0.00442  	0.00000  	0.00000  
37.75845  	33.37249  	4.85958  	5.05855  	26.11556  	-1.18512  	0.01734  	0.09727  	0.08487  	-3.02442  	0.00539  	-0.08573  	-92.03687  	-0.98639  	25.04799  	28.70770  	-20046.22905  	-4176.90339  	0.00414  	0.00003  	0.00402  	0.00433  	0.00442  	0.00000  	0.00000  
38.75844  	33.37314  	4.86011  	5.05862  	26.11904  	-1.18512  	0.01619  	0.09810  	0.09118  	-3.02442  	0.00795  	-0.08570  	-92.00088  	-0.98413  	26.91024  	28.95257  	-20047.13019  	-4176.93896  	0.00415  	0.00003  	0.00403  	0.00431  	0.00443  	0.00000  	0.00000  
39.75844  	33.37284  	4.86097  	5.05900  	26.12238  	-1.18512  	0.01664  	0.09735  	0.09071  	-3.02442  	0.00789  	-0.08583  	-91.95483  	-0.98169  	26.77199  	28.73081  	-20047.79236  	-4177.01299  	0.00415  	0.00002  	0.00403  	0.00432  	0.00442  	0.00000  	0.00000  
40.75836  	33.37195  	4.86066  	5.06015  	26.12785  	-1.18512  	0.01604  	0.09780  	0.09208  	-3.02442  	0.00703  	-0.08576  	-91.87416  	-0.98892  	27.17673  	28.86362  	-20048.79100  	-4177.06297  	0.00415  	0.00002  	0.00402  	0.00431  	0.00443  	0.00000  	0.00000  
41.75863  	33.37288  	4.86103  	5.06022  	26.13235  	-1.18512  	0.01613  	0.09969  	0.08647  	-3.02442  	0.00639  	-0.08578  	-91.82888  	-0.98747  	25.52125  	29.42384  	-20049.97638  	-4177.08898  	0.00414  	0.00002  	0.00402  	0.00431  	0.00443  	0.00000  	0.00000  
42.75854  	33.37246  	4.86143  	5.06040  	26.13755  	-1.18512  	0.01630  	0.09844  	0.08504  	-3.02442  	0.00496  	-0.08590  	-91.75749  	-0.98640  	25.09963  	29.05225  	-20051.01735  	-4177.12376  	0.00414  	0.00002  	0.00402  	0.00431  	0.00443  	0.00000  	0.00000  
43.75953  	33.37119  	4.86251  	5.06013  	26.14241  	-1.18512  	0.01639  	0.09759  	0.08522  	-3.02442  	0.00691  	-0.08574  	-91.67984  	-0.97969  	25.15142  	28.80308  	-20051.80072  	-4177.17214  	0.00414  	0.00003  	0.00402  	0.00431  	0.00442  	0.00000  	0.00000  
44.75982  	33.37128  	4.86276  	5.06106  	26.14906  	-1.18512  	0.01661  	0.09674  	0.08731  	-3.02442  	0.00675  	-0.08574  	-91.59644  	-0.98307  	25.76922  	28.55170  	-20053.27043  	-4177.24259  	0.00414  	0.00003  	0.00402  	0.00432  	0.00442  	0.00000  	0.00000  
45.76078  	33.37224  	4.86272  	5.06150  	26.15443  	-1.18512  	0.01589  	0.09870  	0.08378  	-3.02442  	0.00608  	-0.08584  	-91.54062  	-0.98542  	24.72632  	29.12936  	-20054.64974  	-4177.26637  	0.00413  	0.00002  	0.00402  	0.00431  	0.00443  	0.00000  	0.00000  
46.76062  	33.37204  	4.86259  	5.06229  	26.15840  	-1.18512  	0.01792  	0.09693  	0.08633  	-3.02442  	0.00709  	-0.08578  	-91.48772  	-0.98997  	25.48019  	28.60874  	-20055.47219  	-4177.30591  	0.00414  	0.00002  	0.00402  	0.00434  	0.00442  	0.00000  	0.00000  
47.76010  	33.37137  	4.86330  	5.06247  	26.16397  	-1.18512  	0.01817  	0.09611  	0.08644  	-3.02442  	0.00715  	-0.08567  	-91.40864  	-0.98738  	25.51090  	28.36577  	-20056.54104  	-4177.35896  	0.00414  	0.00003  	0.00402  	0.00435  	0.00442  	0.00000  	0.00000  
48.76072  	33.37143  	4.86379  	5.06294  	26.16702  	-1.18512  	0.01772  	0.09642  	0.08397  	-3.02442  	0.00563  	-0.08570  	-91.37066  	-0.98723  	24.78309  	28.45828  	-20057.21946  	-4177.41616  	0.00413  	0.00003  	0.00402  	0.00434  	0.00442  	0.00000  	0.00000  
49.76050  	33.37188  	4.86435  	5.06290  	26.16975  	-1.18512  	0.01766  	0.09633  	0.08616  	-3.02442  	0.00680  	-0.08569  	-91.34166  	-0.98431  	25.42948  	28.42960  	-20057.91241  	-4177.44704  	0.00414  	0.00003  	0.00402  	0.00434  	0.00442  	0.00000  	0.00000  
50.76045  	33.37132  	4.86418  	5.06326  	26.17243  	-1.18512  	0.01742  	0.09641  	0.08248  	-3.02442  	0.00468  	-0.08575  	-91.30066  	-0.98692  	24.34392  	28.45431  	-20058.37551  	-4177.45842  	0.00413  	0.00002  	0.00401  	0.00433  	0.00442  	0.00000  	0.00000  
51.76119  	33.37161  	4.86497  	5.06332  	26.17393  	-1.18512  	0.01578  	0.09512  	0.08709  	-3.02442  	0.00848  	-0.08572  	-91.28514  	-0.98330  	25.70379  	28.07360  	-20058.76461  	-4177.50958  	0.00414  	0.00003  	0.00403  	0.00430  	0.00441  	0.00000  	0.00000  
52.76173  	33.37160  	4.86466  	5.06317  	26.17507  	-1.18512  	0.01583  	0.09504  	0.08615  	-3.02442  	0.01058  	-0.08574  	-91.27067  	-0.98409  	25.42517  	28.04986  	-20059.01234  	-4177.48142  	0.00414  	0.00003  	0.00403  	0.00430  	0.00441  	0.00000  	0.00000  
53.76285  	33.37020  	4.86506  	5.06434  	26.17548  	-1.18512  	0.01706  	0.09395  	0.08233  	-3.02442  	0.00710  	-0.08575  	-91.24765  	-0.98793  	24.29792  	27.72911  	-20058.79477  	-4177.57538  	0.00413  	0.00002  	0.00402  	0.00433  	0.00441  	0.00000  	0.00000  
54.76264  	33.37037  	4.86565  	5.06463  	26.17375  	-1.18512  	0.01534  	0.09262  	0.08040  	-3.02442  	0.00542  	-0.08572  	-91.27169  	-0.98643  	23.72923  	27.33612  	-20058.45541  	-4177.62760  	0.00413  	0.00003  	0.00402  	0.00429  	0.00440  	0.00000  	0.00000  
55.76283  	33.36896  	4.86523  	5.06349  	26.17259  	-1.18512  	0.01696  	0.09402  	0.07783  	-3.02442  	0.00610  	-0.08585  	-91.26860  	-0.98286  	22.96990  	27.74837  	-20057.89686  	-4177.53507  	0.00412  	0.00002  	0.00402  	0.00433  	0.00441  	0.00000  	0.00000  
56.76324  	33.36895  	4.86616  	5.06470  	26.16995  	-1.18512  	0.01707  	0.09415  	0.07926  	-3.02442  	0.00729  	-0.08587  	-91.30187  	-0.98425  	23.39143  	27.78759  	-20057.31874  	-4177.66258  	0.00413  	0.00002  	0.00402  	0.00433  	0.00441  	0.00000  	0.00000  
57.76351  	33.36866  	4.86616  	5.06474  	26.16638  	-1.18512  	0.01752  	0.09220  	0.08262  	-3.02442  	0.00677  	-0.08569  	-91.34350  	-0.98443  	24.38528  	27.21075  	-20056.47374  	-4177.66474  	0.00413  	0.00003  	0.00402  	0.00434  	0.00440  	0.00000  	0.00000  
58.76359  	33.36830  	4.86647  	5.06453  	26.16261  	-1.18512  	0.01649  	0.09107  	0.07860  	-3.02442  	0.00769  	-0.08582  	-91.38679  	-0.98183  	23.19842  	26.87721  	-20055.57644  	-4177.67061  	0.00413  	0.00002  	0.00402  	0.00432  	0.00439  	0.00000  	0.00000  
59.76411  	33.36660  	4.86651  	5.06540  	26.15798  	-1.18512  	0.01560  	0.09003  	0.07615  	-3.02442  	0.01053  	-0.08565  	-91.42392  	-0.98596  	22.47535  	26.57166  	-20054.19449  	-4177.72461  	0.00412  	0.00003  	0.00403  	0.00430  	0.00439  	0.00000  	0.00000  
60.76484  	33.36585  	4.86673  	5.06560  	26.15175  	-1.18512  	0.01661  	0.08946  	0.07588  	-3.02442  	0.00546  	-0.08568  	-91.49336  	-0.98589  	22.39555  	26.40390  	-20052.67422  	-4177.74998  	0.00412  	0.00003  	0.00402  	0.00432  	0.00439  	0.00000  	0.00000  
61.76475  	33.36504  	4.86677  	5.06586  	26.14559  	-1.18512  	0.01721  	0.09195  	0.08161  	-3.02442  	0.00689  	-0.08573  	-91.56119  	-0.98698  	24.08662  	27.13655  	-20051.15245  	-4177.76762  	0.00413  	0.00003  	0.00402  	0.00433  	0.00440  	0.00000  	0.00000  
62.76463  	33.36387  	4.86765  	5.06594  	26.13900  	-1.18512  	0.01525  	0.09247  	0.07926  	-3.02442  	0.00926  	-0.08574  	-91.62997  	-0.98299  	23.39315  	27.29148  	-20049.46207  	-4177.82550  	0.00413  	0.00003  	0.00403  	0.00429  	0.00440  	0.00000  	0.00000  
63.76396  	33.36366  	4.86761  	5.06611  	26.13264  	-1.18512  	0.01543  	0.09300  	0.08438  	-3.02442  	0.00444  	-0.08578  	-91.70796  	-0.98399  	24.90443  	27.44663  	-20048.02935  	-4177.83281  	0.00414  	0.00002  	0.00401  	0.00430  	0.00440  	0.00000  	0.00000  
64.76456  	33.36220  	4.86806  	5.06626  	26.12544  	-1.18512  	0.01564  	0.09342  	0.08365  	-3.02442  	0.00520  	-0.08567  	-91.78076  	-0.98256  	24.68770  	27.57083  	-20046.14087  	-4177.86835  	0.00413  	0.00003  	0.00402  	0.00430  	0.00441  	0.00000  	0.00000  
65.76476  	33.36124  	4.86890  	5.06608  	26.12072  	-1.18512  	0.01526  	0.09454  	0.08404  	-3.02442  	0.00815  	-0.08576  	-91.82841  	-0.97751  	24.80347  	27.90282  	-20044.90366  	-4177.90799  	0.00413  	0.00002  	0.00403  	0.00429  	0.00441  	0.00000  	0.00000  
66.76488  	33.36043  	4.86890  	5.06671  	26.11806  	-1.18512  	0.01678  	0.09479  	0.08745  	-3.02442  	0.00649  	-0.08580  	-91.85187  	-0.98063  	25.81070  	27.97736  	-20044.14478  	-4177.94594  	0.00414  	0.00002  	0.00402  	0.00432  	0.00441  	0.00000  	0.00000  
67.76429  	33.35985  	4.86779  	5.06648  	26.11586  	-1.18512  	0.01543  	0.09484  	0.08406  	-3.02442  	0.00609  	-0.08573  	-91.87242  	-0.98500  	24.80840  	27.99097  	-20043.54069  	-4177.86567  	0.00413  	0.00003  	0.00402  	0.00430  	0.00441  	0.00000  	0.00000  
68.76471  	33.35968  	4.86799  	5.06687  	26.11396  	-1.18512  	0.01625  	0.09674  	0.08826  	-3.02442  	0.00613  	-0.08565  	-91.89428  	-0.98593  	26.04912  	28.55245  	-20043.08740  	-4177.90037  	0.00414  	0.00003  	0.00402  	0.00431  	0.00442  	0.00000  	0.00000  
69.76480  	33.35809  	4.86945  	5.06716  	26.11377  	-1.18512  	0.01747  	0.09663  	0.08435  	-3.02442  	0.00776  	-0.08575  	-91.87651  	-0.98014  	24.89412  	28.51926  	-20042.70071  	-4178.00508  	0.00413  	0.00002  	0.00402  	0.00434  	0.00442  	0.00000  	0.00000  
70.76531  	33.35772  	4.86937  	5.06789  	26.11458  	-1.18512  	0.01685  	0.09723  	0.08336  	-3.02442  	0.00683  	-0.08574  	-91.86158  	-0.98417  	24.60206  	28.69494  	-20042.79599  	-4178.04410  	0.00413  	0.00002  	0.00402  	0.00432  	0.00442  	0.00000  	0.00000  
71.76643  	33.35705  	4.86963  	5.06885  	26.11698  	-1.18512  	0.01717  	0.09792  	0.08587  	-3.02442  	0.00647  	-0.08575  	-91.82273  	-0.98762  	25.34355  	28.90091  	-20043.17261  	-4178.11619  	0.00414  	0.00002  	0.00402  	0.00433  	0.00443  	0.00000  	0.00000  
72.76642  	33.35674  	4.86948  	5.06865  	26.12109  	-1.18512  	0.01668  	0.09662  	0.08387  	-3.02442  	0.00729  	-0.08565  	-91.76654  	-0.98740  	24.75387  	28.51777  	-20044.00291  	-4178.09593  	0.00413  	0.00003  	0.00402  	0.00432  	0.00442  	0.00000  	0.00000  
73.76845  	33.35603  	4.86981  	5.06901  	26.12501  	-1.18512  	0.01798  	0.09931  	0.08942  	-3.02442  	0.00941  	-0.08574  	-91.70792  	-0.98752  	26.39074  	29.30985  	-20044.70058  	-4178.13736  	0.00414  	0.00003  	0.00403  	0.00435  	0.00443  	0.00000  	0.00000  
74.76849  	33.35526  	4.87091  	5.06985  	26.12870  	-1.18512  	0.01710  	0.10002  	0.08791  	-3.02442  	0.00568  	-0.08568  	-91.65133  	-0.98621  	25.94602  	29.51943  	-20045.33793  	-4178.25283  	0.00414  	0.00003  	0.00402  	0.00433  	0.00444  	0.00000  	0.00000  
75.76950  	33.35537  	4.87093  	5.06943  	26.13397  	-1.18512  	0.01712  	0.09835  	0.09116  	-3.02442  	0.00711  	-0.08577  	-91.58568  	-0.98403  	26.90489  	29.02640  	-20046.51104  	-4178.22872  	0.00415  	0.00002  	0.00402  	0.00433  	0.00443  	0.00000  	0.00000  
76.76948  	33.35571  	4.87094  	5.07038  	26.13955  	-1.18512  	0.01785  	0.09836  	0.08655  	-3.02442  	0.00906  	-0.08573  	-91.51930  	-0.98870  	25.54382  	29.03050  	-20047.80103  	-4178.28593  	0.00414  	0.00003  	0.00403  	0.00434  	0.00443  	0.00000  	0.00000  
77.77000  	33.35486  	4.87105  	5.06977  	26.14430  	-1.18512  	0.01698  	0.09862  	0.08545  	-3.02442  	0.00585  	-0.08586  	-91.44827  	-0.98511  	25.22089  	29.10571  	-20048.65207  	-4178.25581  	0.00414  	0.00002  	0.00402  	0.00433  	0.00443  	0.00000  	0.00000  
78.77071  	33.35486  	4.87210  	5.06982  	26.14934  	-1.18512  	0.01750  	0.09501  	0.08984  	-3.02442  	0.00840  	-0.08570  	-91.38437  	-0.98016  	26.51422  	28.04179  	-20049.75083  	-4178.32151  	0.00414  	0.00003  	0.00403  	0.00434  	0.00441  	0.00000  	0.00000  
79.77012  	33.35490  	4.87178  	5.07058  	26.15332  	-1.18512  	0.01490  	0.09527  	0.08767  	-3.02442  	0.00560  	-0.08571  	-91.33438  	-0.98556  	25.87535  	28.11926  	-20050.62582  	-4178.34793  	0.00414  	0.00003  	0.00402  	0.00429  	0.00441  	0.00000  	0.00000  
80.77148  	33.35391  	4.87199  	5.07113  	26.15666  	-1.18512  	0.01691  	0.09677  	0.08029  	-3.02442  	0.00432  	-0.08576  	-91.27946  	-0.98720  	23.69715  	28.56044  	-20051.13780  	-4178.39297  	0.00413  	0.00002  	0.00401  	0.00432  	0.00442  	0.00000  	0.00000  
81.77164  	33.35386  	4.87190  	5.07169  	26.15922  	-1.18512  	0.01643  	0.09609  	0.08022  	-3.02442  	0.00649  	-0.08573  	-91.24635  	-0.99043  	23.67630  	28.35944  	-20051.68626  	-4178.42144  	0.00413  	0.00003  	0.00402  	0.00432  	0.00442  	0.00000  	0.00000  
82.77171  	33.35272  	4.87167  	5.07062  	26.16193  	-1.18512  	0.01626  	0.09521  	0.08409  	-3.02442  	0.00744  	-0.08573  	-91.19758  	-0.98626  	24.81732  	28.10145  	-20052.02930  	-4178.34368  	0.00413  	0.00003  	0.00402  	0.00431  	0.00441  	0.00000  	0.00000  
83.77204  	33.35333  	4.87219  	5.07254  	26.16469  	-1.18512  	0.01510  	0.09732  	0.08332  	-3.02442  	0.00487  	-0.08573  	-91.17025  	-0.99320  	24.59017  	28.72252  	-20052.76463  	-4178.48961  	0.00413  	0.00003  	0.00402  	0.00429  	0.00442  	0.00000  	0.00000  
84.77197  	33.35184  	4.87325  	5.07267  	26.16478  	-1.18512  	0.01744  	0.09513  	0.08160  	-3.02442  	0.00750  	-0.08570  	-91.15011  	-0.98860  	24.08294  	28.07801  	-20052.45789  	-4178.56048  	0.00413  	0.00003  	0.00402  	0.00433  	0.00441  	0.00000  	0.00000  
85.77208  	33.35177  	4.87318  	5.07230  	26.16570  	-1.18512  	0.01649  	0.09397  	0.08640  	-3.02442  	0.00307  	-0.08563  	-91.13755  	-0.98708  	25.49984  	27.73512  	-20052.64426  	-4178.53414  	0.00414  	0.00003  	0.00401  	0.00432  	0.00441  	0.00000  	0.00000  
86.77370  	33.35150  	4.87313  	5.07233  	26.16567  	-1.18512  	0.01729  	0.09451  	0.07898  	-3.02442  	0.00559  	-0.08577  	-91.13456  	-0.98751  	23.31123  	27.89478  	-20052.57871  	-4178.53278  	0.00413  	0.00002  	0.00402  	0.00433  	0.00441  	0.00000  	0.00000  
87.77322  	33.35050  	4.87332  	5.07193  	26.16497  	-1.18512  	0.01706  	0.09224  	0.08439  	-3.02442  	0.00531  	-0.08574  	-91.13082  	-0.98460  	24.90614  	27.22267  	-20052.20910  	-4178.52052  	0.00414  	0.00002  	0.00402  	0.00433  	0.00440  	0.00000  	0.00000  
88.77376  	33.35098  	4.87345  	5.07167  	26.16349  	-1.18512  	0.01881  	0.09381  	0.07843  	-3.02442  	0.00894  	-0.08576  	-91.15559  	-0.98268  	23.14872  	27.68742  	-20051.99100  	-4178.51262  	0.00413  	0.00002  	0.00403  	0.00436  	0.00441  	0.00000  	0.00000  
89.77331  	33.34824  	4.87341  	5.07266  	26.16067  	-1.18512  	0.01501  	0.09450  	0.08549  	-3.02442  	0.00562  	-0.08572  	-91.15662  	-0.98775  	25.23120  	27.89105  	-20050.77601  	-4178.56979  	0.00414  	0.00003  	0.00402  	0.00429  	0.00441  	0.00000  	0.00000  
90.77461  	33.34670  	4.87339  	5.07176  	26.15706  	-1.18512  	0.01504  	0.09286  	0.08152  	-3.02442  	0.01032  	-0.08578  	-91.18288  	-0.98339  	24.06006  	27.40775  	-20049.65553  	-4178.51395  	0.00413  	0.00002  	0.00403  	0.00429  	0.00440  	0.00000  	0.00000  
91.77406  	33.34764  	4.87353  	5.07066  	26.15364  	-1.18512  	0.01554  	0.09144  	0.08440  	-3.02442  	0.00759  	-0.08554  	-91.23814  	-0.97722  	24.90849  	26.98867  	-20049.11414  	-4178.45702  	0.00414  	0.00003  	0.00402  	0.00430  	0.00440  	0.00000  	0.00000  
92.77533  	33.34707  	4.87392  	5.07123  	26.14945  	-1.18512  	0.01494  	0.09151  	0.08165  	-3.02442  	0.00700  	-0.08572  	-91.28413  	-0.97813  	24.09834  	27.00710  	-20048.07474  	-4178.51487  	0.00413  	0.00003  	0.00402  	0.00429  	0.00440  	0.00000  	0.00000  
93.77754  	33.34632  	4.87327  	5.07168  	26.14506  	-1.18512  	0.01853  	0.09180  	0.07185  	-3.02442  	0.00649  	-0.08575  	-91.33030  	-0.98359  	21.20580  	27.09237  	-20046.95612  	-4178.50198  	0.00411  	0.00002  	0.00402  	0.00436  	0.00440  	0.00000  	0.00000  
94.77745  	33.34467  	4.87335  	5.07148  	26.14004  	-1.18512  	0.01646  	0.09175  	0.07770  	-3.02442  	0.00677  	-0.08582  	-91.37305  	-0.98222  	22.93127  	27.07791  	-20045.50243  	-4178.49567  	0.00412  	0.00002  	0.00402  	0.00432  	0.00440  	0.00000  	0.00000  
95.77850  	33.34371  	4.87412  	5.07163  	26.13317  	-1.18512  	0.01601  	0.09120  	0.08174  	-3.02442  	0.00794  	-0.08572  	-91.44792  	-0.97917  	24.12492  	26.91618  	-20043.79292  	-4178.55021  	0.00413  	0.00003  	0.00403  	0.00431  	0.00440  	0.00000  	0.00000  
96.77849  	33.34338  	4.87378  	5.07068  	26.12549  	-1.18512  	0.01674  	0.09176  	0.07827  	-3.02442  	0.00627  	-0.08577  	-91.54121  	-0.97608  	23.09977  	27.08152  	-20042.04787  	-4178.47299  	0.00413  	0.00002  	0.00402  	0.00432  	0.00440  	0.00000  	0.00000  
97.77850  	33.34230  	4.87342  	5.07038  	26.11939  	-1.18512  	0.01707  	0.09273  	0.07672  	-3.02442  	0.00770  	-0.08578  	-91.60495  	-0.97638  	22.64422  	27.36790  	-20040.48276  	-4178.43377  	0.00412  	0.00002  	0.00402  	0.00433  	0.00440  	0.00000  	0.00000  
98.77851  	33.34112  	4.87390  	5.07073  	26.11328  	-1.18512  	0.01660  	0.09288  	0.08206  	-3.02442  	0.00873  	-0.08573  	-91.66734  	-0.97578  	24.21953  	27.41210  	-20038.89245  	-4178.48344  	0.00413  	0.00003  	0.00403  	0.00432  	0.00440  	0.00000  	0.00000  
99.77845  	33.33897  	4.87501  	5.07050  	26.10733  	-1.18512  	0.01635  	0.09521  	0.08381  	-3.02442  	0.00759  	-0.08579  	-91.71554  	-0.96912  	24.73420  	28.09937  	-20037.12646  	-4178.53584  	0.00413  	0.00002  	0.00402  	0.00431  	0.00441  	0.00000  	0.00000  
100.77966  	33.33838  	4.87322  	5.07139  	26.10251  	-1.18512  	0.01695  	0.09452  	0.08444  	-3.02442  	0.00383  	-0.08570  	-91.76923  	-0.98241  	24.92299  	27.89507  	-20035.94961  	-4178.48175  	0.00414  	0.00003  	0.00401  	0.00433  	0.00441  	0.00000  	0.00000  
101.78050  	33.33861  	4.87349  	5.07107  	26.09954  	-1.18512  	0.01739  	0.09497  	0.08184  	-3.02442  	0.00928  	-0.08576  	-91.80973  	-0.97947  	24.15270  	28.02885  	-20035.35072  	-4178.47949  	0.00413  	0.00002  	0.00403  	0.00433  	0.00441  	0.00000  	0.00000  
102.78242  	33.33688  	4.87398  	5.07064  	26.09797  	-1.18512  	0.01713  	0.09606  	0.08436  	-3.02442  	0.00779  	-0.08568  	-91.80780  	-0.97492  	24.89936  	28.34985  	-20034.63252  	-4178.48265  	0.00413  	0.00003  	0.00402  	0.00433  	0.00442  	0.00000  	0.00000  
