11/04/2024 09:50:33Time	T_hot_in(C)	T_cold_in(C)	T_cold_out(C)	T_hot_out(C)	mdot_cold(kg/s)	ASFASIFUAS(kg/s)	Diferencial_cold(bar)	Diferencial_hot(bar)	mdot_hot(kg/s)	ABS_cold(bar)	ABS_hot(bar)	q_cold(kW)	q_hot(kW)	ASFASYFY	Tau_cold_haste	Re_hot	Re_cold	U_global	PSIG_cold(bar)	R_fouling	PSIG_hot(bar)	PSID_hot(bar)	m_dot_hot	PSID_cold(bar)	m_dot_cold
1.75973  	0.00000  	0.00000  	0.00000  	0.00000  	-1.18512  	-0.20833  	-0.86278  	-2.50000  	-3.02442  	-1.25000  	-0.08628  	-0.00000  	-0.00000  	-737.84722  	-254.63905  	-9234.48090  	-3618.55272  	0.00000  	0.00000  	0.00000  	0.00000  	0.00000  	0.00000  	0.00000  
2.76024  	33.30387  	4.86677  	5.08077  	27.81711  	-1.18512  	0.02616  	0.16896  	0.16394  	-3.02442  	0.00771  	-0.08574  	-69.58612  	-1.06085  	48.38524  	49.86570  	-20403.21370  	-4178.65687  	0.00426  	0.00003  	0.00402  	0.00450  	0.00475  	0.00000  	0.00000  
3.76031  	33.30370  	4.86630  	5.08065  	27.81556  	-1.18512  	0.02548  	0.16748  	0.16875  	-3.02442  	0.00542  	-0.08576  	-69.60354  	-1.06262  	49.80324  	49.42894  	-20402.83712  	-4178.62156  	0.00427  	0.00002  	0.00402  	0.00449  	0.00475  	0.00000  	0.00000  
4.76016  	33.30425  	4.86698  	5.08026  	27.81147  	-1.18512  	0.02463  	0.16689  	0.16541  	-3.02442  	0.00707  	-0.08573  	-69.66232  	-1.05729  	48.81914  	49.25582  	-20402.06099  	-4178.63936  	0.00426  	0.00003  	0.00402  	0.00447  	0.00474  	0.00000  	0.00000  
5.76052  	33.30378  	4.86635  	5.08019  	27.80616  	-1.18512  	0.02398  	0.16541  	0.16749  	-3.02442  	0.00825  	-0.08579  	-69.72375  	-1.06009  	49.43278  	48.82018  	-20400.79405  	-4178.59737  	0.00427  	0.00002  	0.00403  	0.00446  	0.00474  	0.00000  	0.00000  
6.76002  	33.30362  	4.86713  	5.07996  	27.80118  	-1.18512  	0.02525  	0.16602  	0.16182  	-3.02442  	0.00705  	-0.08578  	-69.78485  	-1.05507  	47.76065  	49.00022  	-20399.66805  	-4178.62978  	0.00426  	0.00002  	0.00402  	0.00448  	0.00474  	0.00000  	0.00000  
7.76039  	33.30448  	4.86731  	5.08048  	27.79588  	-1.18512  	0.02414  	0.16554  	0.16900  	-3.02442  	0.00657  	-0.08566  	-69.86307  	-1.05676  	49.87827  	48.85873  	-20398.69448  	-4178.67239  	0.00427  	0.00003  	0.00402  	0.00446  	0.00474  	0.00000  	0.00000  
8.76056  	33.30488  	4.86666  	5.07893  	27.78841  	-1.18512  	0.02628  	0.16743  	0.16920  	-3.02442  	0.00854  	-0.08587  	-69.96285  	-1.05232  	49.93775  	49.41639  	-20397.14400  	-4178.54083  	0.00427  	0.00002  	0.00403  	0.00450  	0.00475  	0.00000  	0.00000  
9.76045  	33.30503  	4.86649  	5.07900  	27.78299  	-1.18512  	0.02485  	0.17034  	0.17717  	-3.02442  	0.00688  	-0.08583  	-70.03361  	-1.05351  	52.28847  	50.27371  	-20395.98967  	-4178.53493  	0.00428  	0.00002  	0.00402  	0.00448  	0.00476  	0.00000  	0.00000  
10.76141  	33.30556  	4.86566  	5.07919  	27.77847  	-1.18512  	0.02661  	0.17140  	0.17353  	-3.02442  	0.00681  	-0.08577  	-70.09764  	-1.05855  	51.21664  	50.58707  	-20395.11522  	-4178.49611  	0.00428  	0.00002  	0.00402  	0.00451  	0.00476  	0.00000  	0.00000  
11.76097  	33.30546  	4.86547  	5.07839  	27.77474  	-1.18512  	0.02610  	0.17028  	0.17246  	-3.02442  	0.00664  	-0.08566  	-70.14353  	-1.05552  	50.89971  	50.25714  	-20394.27619  	-4178.43791  	0.00428  	0.00003  	0.00402  	0.00450  	0.00476  	0.00000  	0.00000  
12.76168  	33.30527  	4.86642  	5.07903  	27.77141  	-1.18512  	0.02628  	0.17288  	0.17043  	-3.02442  	0.00659  	-0.08578  	-70.18344  	-1.05399  	50.29917  	51.02478  	-20393.50282  	-4178.53221  	0.00427  	0.00002  	0.00402  	0.00450  	0.00477  	0.00000  	0.00000  
13.76189  	33.30586  	4.86600  	5.07809  	27.76940  	-1.18512  	0.02661  	0.17195  	0.17520  	-3.02442  	0.00733  	-0.08579  	-70.21640  	-1.05141  	51.70775  	50.74961  	-20393.19505  	-4178.45091  	0.00428  	0.00002  	0.00402  	0.00451  	0.00477  	0.00000  	0.00000  
14.76244  	33.30593  	4.86565  	5.07827  	27.76866  	-1.18512  	0.02535  	0.17477  	0.18229  	-3.02442  	0.00464  	-0.08586  	-70.22663  	-1.05401  	53.80211  	51.58150  	-20393.04609  	-4178.44143  	0.00429  	0.00002  	0.00401  	0.00449  	0.00478  	0.00000  	0.00000  
15.76257  	33.30602  	4.86571  	5.07927  	27.76831  	-1.18512  	0.02687  	0.17572  	0.17534  	-3.02442  	0.00887  	-0.08582  	-70.23219  	-1.05867  	51.74938  	51.86043  	-20392.98952  	-4178.50394  	0.00428  	0.00002  	0.00403  	0.00452  	0.00478  	0.00000  	0.00000  
16.76303  	33.30631  	4.86655  	5.07946  	27.76917  	-1.18512  	0.02512  	0.17361  	0.18093  	-3.02442  	0.01086  	-0.08566  	-70.22491  	-1.05546  	53.39982  	51.23992  	-20393.24095  	-4178.56525  	0.00429  	0.00003  	0.00403  	0.00448  	0.00478  	0.00000  	0.00000  
17.76361  	33.30650  	4.86606  	5.07899  	27.77060  	-1.18512  	0.02565  	0.17591  	0.17939  	-3.02442  	0.01011  	-0.08581  	-70.20936  	-1.05558  	52.94630  	51.91714  	-20393.59610  	-4178.50880  	0.00429  	0.00002  	0.00403  	0.00449  	0.00479  	0.00000  	0.00000  
18.76530  	33.30624  	4.86636  	5.07954  	27.77250  	-1.18512  	0.02564  	0.17691  	0.17682  	-3.02442  	0.00339  	-0.08574  	-70.18176  	-1.05682  	52.18778  	52.21359  	-20393.95573  	-4178.55953  	0.00428  	0.00003  	0.00401  	0.00449  	0.00479  	0.00000  	0.00000  
19.76635  	33.30518  	4.86621  	5.07969  	27.77624  	-1.18512  	0.02744  	0.17583  	0.17680  	-3.02442  	0.00989  	-0.08560  	-70.12096  	-1.05826  	52.17970  	51.89368  	-20394.54305  	-4178.55924  	0.00428  	0.00003  	0.00403  	0.00453  	0.00479  	0.00000  	0.00000  
20.76654  	33.30596  	4.86556  	5.07950  	27.77900  	-1.18512  	0.02701  	0.17889  	0.18365  	-3.02442  	0.00466  	-0.08580  	-70.09592  	-1.06059  	54.20357  	52.79629  	-20395.31764  	-4178.50930  	0.00429  	0.00002  	0.00401  	0.00452  	0.00480  	0.00000  	0.00000  
21.76629  	33.30633  	4.86615  	5.07961  	27.78326  	-1.18512  	0.02537  	0.17636  	0.18694  	-3.02442  	0.00652  	-0.08572  	-70.04648  	-1.05817  	55.17294  	52.04978  	-20396.33404  	-4178.55063  	0.00430  	0.00003  	0.00402  	0.00449  	0.00479  	0.00000  	0.00000  
22.76631  	33.30629  	4.86591  	5.07975  	27.78671  	-1.18512  	0.02853  	0.17963  	0.17623  	-3.02442  	0.00655  	-0.08580  	-70.00224  	-1.06009  	52.01142  	53.01485  	-20397.08032  	-4178.54446  	0.00428  	0.00002  	0.00402  	0.00455  	0.00480  	0.00000  	0.00000  
23.76651  	33.30625  	4.86624  	5.07939  	27.79101  	-1.18512  	0.02751  	0.18093  	0.17707  	-3.02442  	0.00836  	-0.08561  	-69.94727  	-1.05667  	52.26154  	53.39807  	-20398.01656  	-4178.54329  	0.00428  	0.00003  	0.00403  	0.00453  	0.00481  	0.00000  	0.00000  
24.76656  	33.30550  	4.86463  	5.08008  	27.79664  	-1.18512  	0.02603  	0.18058  	0.18307  	-3.02442  	0.00520  	-0.08577  	-69.86626  	-1.06805  	54.03249  	53.29531  	-20399.08431  	-4178.48850  	0.00429  	0.00002  	0.00402  	0.00450  	0.00481  	0.00000  	0.00000  
25.76651  	33.30558  	4.86471  	5.07884  	27.79939  	-1.18512  	0.02424  	0.17862  	0.18661  	-3.02442  	0.00878  	-0.08577  	-69.83244  	-1.06156  	55.07447  	52.71652  	-20399.70484  	-4178.41887  	0.00430  	0.00002  	0.00403  	0.00447  	0.00480  	0.00000  	0.00000  
26.76609  	33.30531  	4.86489  	5.07909  	27.80358  	-1.18512  	0.02685  	0.17824  	0.18108  	-3.02442  	0.00671  	-0.08580  	-69.77599  	-1.06186  	53.44259  	52.60473  	-20400.56337  	-4178.44434  	0.00429  	0.00002  	0.00402  	0.00452  	0.00480  	0.00000  	0.00000  
27.76649  	33.30598  	4.86463  	5.07980  	27.80733  	-1.18512  	0.02655  	0.17785  	0.18214  	-3.02442  	0.00732  	-0.08579  	-69.73680  	-1.06666  	53.75608  	52.48985  	-20401.53291  	-4178.47156  	0.00429  	0.00002  	0.00402  	0.00451  	0.00479  	0.00000  	0.00000  
28.76630  	33.30512  	4.86398  	5.07854  	27.81217  	-1.18512  	0.02572  	0.17720  	0.18717  	-3.02442  	0.00493  	-0.08580  	-69.66459  	-1.06362  	55.24049  	52.29855  	-20402.40396  	-4178.35740  	0.00430  	0.00002  	0.00402  	0.00449  	0.00479  	0.00000  	0.00000  
29.76629  	33.30499  	4.86416  	5.07829  	27.81565  	-1.18512  	0.02618  	0.17701  	0.17878  	-3.02442  	0.00645  	-0.08569  	-69.61881  	-1.06156  	52.76432  	52.24338  	-20403.14015  	-4178.35336  	0.00429  	0.00003  	0.00402  	0.00450  	0.00479  	0.00000  	0.00000  
30.76627  	33.30454  	4.86366  	5.07797  	27.81680  	-1.18512  	0.02741  	0.17458  	0.17565  	-3.02442  	0.00494  	-0.08581  	-69.59859  	-1.06236  	51.84214  	51.52590  	-20403.29265  	-4178.30446  	0.00428  	0.00002  	0.00402  	0.00453  	0.00478  	0.00000  	0.00000  
31.76647  	33.30445  	4.86339  	5.07755  	27.81881  	-1.18512  	0.02582  	0.17353  	0.17246  	-3.02442  	0.00789  	-0.08570  	-69.57191  	-1.06165  	50.90047  	51.21548  	-20403.71373  	-4178.26337  	0.00428  	0.00003  	0.00403  	0.00450  	0.00477  	0.00000  	0.00000  
32.76630  	33.30512  	4.86362  	5.07737  	27.81905  	-1.18512  	0.02351  	0.17040  	0.17679  	-3.02442  	0.00750  	-0.08566  	-69.57740  	-1.05963  	52.17774  	50.29026  	-20403.91471  	-4178.26584  	0.00428  	0.00003  	0.00402  	0.00445  	0.00476  	0.00000  	0.00000  
33.76627  	33.30362  	4.86375  	5.07754  	27.81856  	-1.18512  	0.02390  	0.17019  	0.17685  	-3.02442  	0.00781  	-0.08575  	-69.56447  	-1.05985  	52.19671  	50.22870  	-20403.47615  	-4178.28399  	0.00428  	0.00002  	0.00403  	0.00446  	0.00476  	0.00000  	0.00000  
34.76639  	33.30362  	4.86275  	5.07766  	27.81679  	-1.18512  	0.02639  	0.16950  	0.17579  	-3.02442  	0.00652  	-0.08567  	-69.58695  	-1.06539  	51.88216  	50.02643  	-20403.08957  	-4178.23171  	0.00428  	0.00003  	0.00402  	0.00451  	0.00476  	0.00000  	0.00000  
35.76630  	33.30353  	4.86383  	5.07693  	27.81465  	-1.18512  	0.02422  	0.16966  	0.16850  	-3.02442  	0.00619  	-0.08567  	-69.61304  	-1.05639  	49.73028  	50.07249  	-20402.60075  	-4178.25254  	0.00427  	0.00003  	0.00402  	0.00446  	0.00476  	0.00000  	0.00000  
36.76629  	33.30247  	4.86405  	5.07693  	27.81160  	-1.18512  	0.02440  	0.16607  	0.16696  	-3.02442  	0.00538  	-0.08563  	-69.63830  	-1.05529  	49.27550  	49.01492  	-20401.69795  	-4178.26562  	0.00427  	0.00003  	0.00402  	0.00447  	0.00474  	0.00000  	0.00000  
37.76636  	33.30290  	4.86350  	5.07632  	27.80791  	-1.18512  	0.02386  	0.16505  	0.16722  	-3.02442  	0.00969  	-0.08569  	-69.69045  	-1.05500  	49.35238  	48.71131  	-20400.98460  	-4178.19659  	0.00427  	0.00003  	0.00403  	0.00446  	0.00474  	0.00000  	0.00000  
38.76629  	33.30228  	4.86367  	5.07664  	27.80213  	-1.18512  	0.02517  	0.16430  	0.16078  	-3.02442  	0.00713  	-0.08561  	-69.75603  	-1.05579  	47.45219  	48.48986  	-20399.58140  	-4178.22578  	0.00426  	0.00003  	0.00402  	0.00448  	0.00473  	0.00000  	0.00000  
39.76778  	33.30179  	4.86355  	5.07721  	27.79527  	-1.18512  	0.02547  	0.16568  	0.16710  	-3.02442  	0.00731  	-0.08576  	-69.83671  	-1.05922  	49.31683  	48.89728  	-20397.97103  	-4178.25244  	0.00427  	0.00002  	0.00402  	0.00449  	0.00474  	0.00000  	0.00000  
40.76776  	33.30133  	4.86419  	5.07587  	27.78978  	-1.18512  	0.02371  	0.16775  	0.16829  	-3.02442  	0.00740  	-0.08572  	-69.90057  	-1.04934  	49.66890  	49.50987  	-20396.66824  	-4178.21096  	0.00427  	0.00003  	0.00402  	0.00446  	0.00475  	0.00000  	0.00000  
41.76821  	33.30081  	4.86370  	5.07556  	27.78299  	-1.18512  	0.02499  	0.16780  	0.17194  	-3.02442  	0.00587  	-0.08573  	-69.98004  	-1.05029  	50.74559  	49.52401  	-20395.06470  	-4178.16330  	0.00428  	0.00003  	0.00402  	0.00448  	0.00475  	0.00000  	0.00000  
42.76855  	33.30146  	4.86412  	5.07562  	27.77680  	-1.18512  	0.02392  	0.16815  	0.17013  	-3.02442  	0.00451  	-0.08577  	-70.06682  	-1.04847  	50.21155  	49.62849  	-20393.85006  	-4178.19231  	0.00427  	0.00002  	0.00401  	0.00446  	0.00475  	0.00000  	0.00000  
43.76857  	33.30178  	4.86390  	5.07558  	27.77316  	-1.18512  	0.02678  	0.16978  	0.16618  	-3.02442  	0.00889  	-0.08570  	-70.11706  	-1.04940  	49.04600  	50.10793  	-20393.12456  	-4178.17647  	0.00427  	0.00003  	0.00403  	0.00451  	0.00476  	0.00000  	0.00000  
44.76847  	33.30011  	4.86355  	5.07540  	27.76924  	-1.18512  	0.02842  	0.17238  	0.17044  	-3.02442  	0.00717  	-0.08579  	-70.14557  	-1.05018  	50.30371  	50.87493  	-20391.89681  	-4178.14449  	0.00427  	0.00002  	0.00402  	0.00455  	0.00477  	0.00000  	0.00000  
45.76925  	33.30033  	4.86289  	5.07472  	27.76681  	-1.18512  	0.02566  	0.16936  	0.17546  	-3.02442  	0.00819  	-0.08582  	-70.17929  	-1.05011  	51.78390  	49.98442  	-20391.41301  	-4178.06480  	0.00428  	0.00002  	0.00403  	0.00449  	0.00476  	0.00000  	0.00000  
46.76993  	33.30074  	4.86265  	5.07527  	27.76507  	-1.18512  	0.02515  	0.17156  	0.16984  	-3.02442  	0.00905  	-0.08570  	-70.20654  	-1.05404  	50.12529  	50.63470  	-20391.12309  	-4178.08313  	0.00427  	0.00003  	0.00403  	0.00448  	0.00477  	0.00000  	0.00000  
47.77038  	33.30042  	4.86254  	5.07591  	27.76373  	-1.18512  	0.02628  	0.17346  	0.17489  	-3.02442  	0.00702  	-0.08582  	-70.21938  	-1.05776  	51.61554  	51.19379  	-20390.75975  	-4178.11461  	0.00428  	0.00002  	0.00402  	0.00450  	0.00477  	0.00000  	0.00000  
48.77062  	33.30070  	4.86288  	5.07521  	27.76335  	-1.18512  	0.02673  	0.17535  	0.17795  	-3.02442  	0.00545  	-0.08581  	-70.22773  	-1.05259  	52.52098  	51.75200  	-20390.73504  	-4178.09380  	0.00428  	0.00002  	0.00402  	0.00451  	0.00478  	0.00000  	0.00000  
49.77024  	33.30038  	4.86289  	5.07401  	27.76313  	-1.18512  	0.02662  	0.17588  	0.17777  	-3.02442  	0.00648  	-0.08583  	-70.22663  	-1.04658  	52.46591  	51.90804  	-20390.61755  	-4178.02229  	0.00428  	0.00002  	0.00402  	0.00451  	0.00479  	0.00000  	0.00000  
50.77075  	33.30086  	4.86234  	5.07441  	27.76426  	-1.18512  	0.02706  	0.17694  	0.17501  	-3.02442  	0.00707  	-0.08579  	-70.21823  	-1.05132  	51.65198  	52.22241  	-20390.97103  	-4178.01362  	0.00428  	0.00002  	0.00402  	0.00452  	0.00479  	0.00000  	0.00000  
51.77133  	33.30043  	4.86149  	5.07425  	27.76645  	-1.18512  	0.02597  	0.17736  	0.17792  	-3.02442  	0.00692  	-0.08567  	-70.18511  	-1.05473  	52.50990  	52.34715  	-20391.35698  	-4177.95332  	0.00428  	0.00003  	0.00402  	0.00450  	0.00479  	0.00000  	0.00000  
52.77089  	33.29927  	4.86118  	5.07498  	27.76912  	-1.18512  	0.02719  	0.17871  	0.17449  	-3.02442  	0.00978  	-0.08579  	-70.13643  	-1.05988  	51.50023  	52.74364  	-20391.68759  	-4177.97786  	0.00428  	0.00002  	0.00403  	0.00452  	0.00480  	0.00000  	0.00000  
53.77234  	33.29921  	4.86159  	5.07442  	27.77174  	-1.18512  	0.02539  	0.17807  	0.17802  	-3.02442  	0.00718  	-0.08579  	-70.10259  	-1.05507  	52.54199  	52.55448  	-20392.24818  	-4177.96892  	0.00428  	0.00002  	0.00402  	0.00449  	0.00480  	0.00000  	0.00000  
54.77267  	33.29940  	4.86256  	5.07497  	27.77493  	-1.18512  	0.02709  	0.17758  	0.18271  	-3.02442  	0.01001  	-0.08574  	-70.06441  	-1.05298  	53.92372  	52.41117  	-20392.99019  	-4178.05964  	0.00429  	0.00003  	0.00403  	0.00452  	0.00479  	0.00000  	0.00000  
55.77206  	33.29909  	4.86144  	5.07523  	27.77784  	-1.18512  	0.02469  	0.18066  	0.18064  	-3.02442  	0.00707  	-0.08579  	-70.02360  	-1.05988  	53.31345  	53.32106  	-20393.55853  	-4178.00869  	0.00429  	0.00002  	0.00402  	0.00447  	0.00481  	0.00000  	0.00000  
56.77246  	33.29865  	4.86078  	5.07365  	27.78322  	-1.18512  	0.02657  	0.17961  	0.17973  	-3.02442  	0.00746  	-0.08581  	-69.94981  	-1.05526  	53.04524  	53.00935  	-20394.64186  	-4177.87465  	0.00429  	0.00002  	0.00402  	0.00451  	0.00480  	0.00000  	0.00000  
57.77261  	33.29801  	4.86130  	5.07398  	27.78650  	-1.18512  	0.02641  	0.18026  	0.17694  	-3.02442  	0.00668  	-0.08574  	-69.90010  	-1.05431  	52.22116  	53.20123  	-20395.22210  	-4177.92616  	0.00428  	0.00003  	0.00402  	0.00451  	0.00481  	0.00000  	0.00000  
58.77255  	33.29880  	4.86046  	5.07384  	27.79094  	-1.18512  	0.02706  	0.17982  	0.17794  	-3.02442  	0.00685  	-0.08589  	-69.85377  	-1.05783  	52.51792  	53.07046  	-20396.36731  	-4177.86739  	0.00428  	0.00002  	0.00402  	0.00452  	0.00480  	0.00000  	0.00000  
59.77266  	33.29825  	4.86025  	5.07470  	27.79613  	-1.18512  	0.02593  	0.18038  	0.18676  	-3.02442  	0.00641  	-0.08581  	-69.78100  	-1.06310  	55.12100  	53.23637  	-20397.38323  	-4177.90563  	0.00430  	0.00002  	0.00402  	0.00450  	0.00481  	0.00000  	0.00000  
60.77369  	33.29917  	4.86059  	5.07452  	27.80108  	-1.18512  	0.02624  	0.17880  	0.17868  	-3.02442  	0.00863  	-0.08587  	-69.72995  	-1.06049  	52.73671  	52.77130  	-20398.66907  	-4177.91567  	0.00429  	0.00002  	0.00403  	0.00450  	0.00480  	0.00000  	0.00000  
61.77381  	33.29873  	4.86045  	5.07403  	27.80510  	-1.18512  	0.02772  	0.17715  	0.17710  	-3.02442  	0.00885  	-0.08567  	-69.67333  	-1.05878  	52.26977  	52.28390  	-20399.45357  	-4177.87832  	0.00428  	0.00003  	0.00403  	0.00453  	0.00479  	0.00000  	0.00000  
62.77613  	33.29755  	4.86005  	5.07332  	27.80924  	-1.18512  	0.02801  	0.17491  	0.17915  	-3.02442  	0.01064  	-0.08573  	-69.60585  	-1.05724  	52.87293  	51.62354  	-20400.10322  	-4177.81200  	0.00429  	0.00003  	0.00403  	0.00454  	0.00478  	0.00000  	0.00000  
63.77693  	33.29824  	4.86091  	5.07290  	27.81187  	-1.18512  	0.02611  	0.17737  	0.17221  	-3.02442  	0.00691  	-0.08569  	-69.58132  	-1.05091  	50.82637  	52.34862  	-20400.83115  	-4177.83766  	0.00428  	0.00003  	0.00402  	0.00450  	0.00479  	0.00000  	0.00000  
64.77708  	33.29773  	4.86005  	5.07366  	27.81466  	-1.18512  	0.02764  	0.17640  	0.17258  	-3.02442  	0.00938  	-0.08580  	-69.53951  	-1.05891  	50.93384  	52.06153  	-20401.33044  	-4177.83202  	0.00428  	0.00002  	0.00403  	0.00453  	0.00479  	0.00000  	0.00000  
65.77811  	33.29810  	4.86012  	5.07336  	27.81661  	-1.18512  	0.02637  	0.17493  	0.17487  	-3.02442  	0.00438  	-0.08575  	-69.51939  	-1.05709  	51.61038  	51.62958  	-20401.84048  	-4177.81889  	0.00428  	0.00002  	0.00401  	0.00451  	0.00478  	0.00000  	0.00000  
66.77845  	33.29729  	4.86041  	5.07370  	27.81752  	-1.18512  	0.02607  	0.17276  	0.17726  	-3.02442  	0.00618  	-0.08578  	-69.49759  	-1.05733  	52.31492  	50.98741  	-20401.86064  	-4177.85604  	0.00428  	0.00002  	0.00402  	0.00450  	0.00477  	0.00000  	0.00000  
67.77857  	33.29762  	4.85998  	5.07239  	27.81753  	-1.18512  	0.02501  	0.17331  	0.16751  	-3.02442  	0.00498  	-0.08576  	-69.50170  	-1.05297  	49.43896  	51.14956  	-20401.93642  	-4177.75251  	0.00427  	0.00002  	0.00402  	0.00448  	0.00477  	0.00000  	0.00000  
68.77881  	33.29856  	4.86005  	5.07182  	27.81680  	-1.18512  	0.02678  	0.17081  	0.17342  	-3.02442  	0.00647  	-0.08575  	-69.52283  	-1.04982  	51.18193  	50.41185  	-20401.98303  	-4177.72269  	0.00428  	0.00002  	0.00402  	0.00451  	0.00476  	0.00000  	0.00000  
69.78007  	33.29672  	4.86020  	5.07138  	27.81514  	-1.18512  	0.02578  	0.16951  	0.17270  	-3.02442  	0.00449  	-0.08580  	-69.52050  	-1.04691  	50.96938  	50.02904  	-20401.21413  	-4177.70521  	0.00428  	0.00002  	0.00401  	0.00450  	0.00476  	0.00000  	0.00000  
70.78043  	33.29632  	4.85921  	5.07104  	27.81261  	-1.18512  	0.02422  	0.16783  	0.16920  	-3.02442  	0.00483  	-0.08559  	-69.54759  	-1.05010  	49.93889  	49.53388  	-20400.57337  	-4177.62606  	0.00427  	0.00003  	0.00402  	0.00447  	0.00475  	0.00000  	0.00000  
71.78077  	33.29694  	4.85852  	5.07145  	27.80854  	-1.18512  	0.02544  	0.16568  	0.16622  	-3.02442  	0.00782  	-0.08583  	-69.60701  	-1.05558  	49.05726  	48.89749  	-20399.81674  	-4177.60950  	0.00427  	0.00002  	0.00403  	0.00449  	0.00474  	0.00000  	0.00000  
72.78061  	33.29661  	4.85953  	5.07056  	27.80438  	-1.18512  	0.02594  	0.16475  	0.16458  	-3.02442  	0.00714  	-0.08577  	-69.65574  	-1.04613  	48.57302  	48.62409  	-20398.83202  	-4177.61612  	0.00426  	0.00002  	0.00402  	0.00450  	0.00473  	0.00000  	0.00000  
73.78075  	33.29702  	4.85869  	5.07074  	27.79903  	-1.18512  	0.02574  	0.16344  	0.16597  	-3.02442  	0.00901  	-0.08578  	-69.72874  	-1.05124  	48.98297  	48.23832  	-20397.74850  	-4177.57706  	0.00427  	0.00002  	0.00403  	0.00449  	0.00473  	0.00000  	0.00000  
74.78059  	33.29615  	4.85837  	5.07067  	27.79297  	-1.18512  	0.02546  	0.16702  	0.17057  	-3.02442  	0.00637  	-0.08576  	-69.79459  	-1.05244  	50.34133  	49.29486  	-20396.23088  	-4177.55389  	0.00427  	0.00002  	0.00402  	0.00449  	0.00474  	0.00000  	0.00000  
75.78246  	33.29685  	4.85855  	5.07081  	27.78635  	-1.18512  	0.02666  	0.16646  	0.16509  	-3.02442  	0.00978  	-0.08571  	-69.88731  	-1.05221  	48.72330  	49.12759  	-20394.93294  	-4177.57271  	0.00426  	0.00003  	0.00403  	0.00451  	0.00474  	0.00000  	0.00000  
76.78253  	33.29619  	4.85804  	5.06953  	27.78165  	-1.18512  	0.02563  	0.16848  	0.17242  	-3.02442  	0.00552  	-0.08576  	-69.93870  	-1.04842  	50.88748  	49.72575  	-20393.75984  	-4177.46618  	0.00428  	0.00002  	0.00402  	0.00449  	0.00475  	0.00000  	0.00000  
77.78182  	33.29596  	4.85869  	5.06938  	27.77666  	-1.18512  	0.02555  	0.16866  	0.16989  	-3.02442  	0.00877  	-0.08569  	-69.99908  	-1.04448  	50.14210  	49.77816  	-20392.61508  	-4177.49626  	0.00427  	0.00003  	0.00403  	0.00449  	0.00475  	0.00000  	0.00000  
78.78220  	33.29715  	4.85864  	5.06894  	27.77204  	-1.18512  	0.02366  	0.17353  	0.17904  	-3.02442  	0.00300  	-0.08590  	-70.07266  	-1.04255  	52.84264  	51.21444  	-20391.86299  	-4177.46656  	0.00429  	0.00002  	0.00401  	0.00445  	0.00477  	0.00000  	0.00000  
79.78253  	33.29636  	4.85886  	5.06973  	27.76905  	-1.18512  	0.02479  	0.17280  	0.17394  	-3.02442  	0.00561  	-0.08589  	-70.10063  	-1.04535  	51.33750  	51.00087  	-20391.03391  	-4177.52699  	0.00428  	0.00002  	0.00402  	0.00448  	0.00477  	0.00000  	0.00000  
80.78336  	33.29582  	4.85798  	5.06927  	27.76636  	-1.18512  	0.02576  	0.17200  	0.17743  	-3.02442  	0.00590  	-0.08573  	-70.12795  	-1.04744  	52.36627  	50.76521  	-20390.32628  	-4177.44674  	0.00428  	0.00003  	0.00402  	0.00449  	0.00477  	0.00000  	0.00000  
81.78340  	33.29631  	4.85801  	5.06938  	27.76459  	-1.18512  	0.02497  	0.17107  	0.17395  	-3.02442  	0.00692  	-0.08563  	-70.15650  	-1.04786  	51.33882  	50.49001  	-20390.04640  	-4177.45514  	0.00428  	0.00003  	0.00402  	0.00448  	0.00476  	0.00000  	0.00000  
82.78370  	33.29694  	4.85808  	5.06920  	27.76478  	-1.18512  	0.02684  	0.17529  	0.17883  	-3.02442  	0.00560  	-0.08575  	-70.16222  	-1.04657  	52.77931  	51.73489  	-20390.22579  	-4177.44885  	0.00429  	0.00002  	0.00402  	0.00452  	0.00478  	0.00000  	0.00000  
83.78438  	33.29631  	4.85703  	5.06915  	27.76431  	-1.18512  	0.02750  	0.17534  	0.17640  	-3.02442  	0.00920  	-0.08570  	-70.16015  	-1.05156  	52.06165  	51.75095  	-20389.98609  	-4177.38357  	0.00428  	0.00003  	0.00403  	0.00453  	0.00478  	0.00000  	0.00000  
84.78530  	33.29666  	4.85700  	5.06944  	27.76589  	-1.18512  	0.02622  	0.17597  	0.17486  	-3.02442  	0.00785  	-0.08565  	-70.14444  	-1.05316  	51.60835  	51.93633  	-20390.40775  	-4177.39865  	0.00428  	0.00003  	0.00403  	0.00450  	0.00479  	0.00000  	0.00000  
85.78637  	33.29595  	4.85707  	5.06940  	27.76694  	-1.18512  	0.02475  	0.17612  	0.18052  	-3.02442  	0.00542  	-0.08580  	-70.12222  	-1.05258  	53.27898  	51.97977  	-20390.48291  	-4177.40044  	0.00429  	0.00002  	0.00402  	0.00448  	0.00479  	0.00000  	0.00000  
86.78628  	33.29545  	4.85641  	5.06880  	27.76953  	-1.18512  	0.02646  	0.17803  	0.18357  	-3.02442  	0.00643  	-0.08586  	-70.08310  	-1.05284  	54.18010  	52.54338  	-20390.93959  	-4177.32541  	0.00429  	0.00002  	0.00402  	0.00451  	0.00480  	0.00000  	0.00000  
87.78636  	33.29512  	4.85698  	5.06692  	27.77319  	-1.18512  	0.02759  	0.17723  	0.17560  	-3.02442  	0.00807  	-0.08580  	-70.03241  	-1.04079  	51.82616  	52.30891  	-20391.66896  	-4177.24722  	0.00428  	0.00002  	0.00403  	0.00453  	0.00479  	0.00000  	0.00000  
88.78627  	33.29499  	4.85663  	5.06780  	27.77575  	-1.18512  	0.02449  	0.17835  	0.18437  	-3.02442  	0.00687  	-0.08575  	-69.99831  	-1.04688  	54.41608  	52.63686  	-20392.20081  	-4177.27892  	0.00429  	0.00002  	0.00402  	0.00447  	0.00480  	0.00000  	0.00000  
89.78749  	33.29502  	4.85662  	5.06785  	27.77992  	-1.18512  	0.02566  	0.17983  	0.18398  	-3.02442  	0.00675  	-0.08569  	-69.94578  	-1.04715  	54.29976  	53.07397  	-20393.12359  	-4177.28135  	0.00429  	0.00003  	0.00402  	0.00449  	0.00480  	0.00000  	0.00000  
90.78827  	33.29494  	4.85660  	5.06824  	27.78390  	-1.18512  	0.02616  	0.17878  	0.17848  	-3.02442  	0.00906  	-0.08565  	-69.89432  	-1.04920  	52.67574  	52.76595  	-20393.97815  	-4177.30321  	0.00429  	0.00003  	0.00403  	0.00450  	0.00480  	0.00000  	0.00000  
91.78812  	33.29504  	4.85645  	5.06846  	27.78791  	-1.18512  	0.02745  	0.17887  	0.18065  	-3.02442  	0.00658  	-0.08576  	-69.84477  	-1.05102  	53.31651  	52.79133  	-20394.87725  	-4177.30736  	0.00429  	0.00002  	0.00402  	0.00453  	0.00480  	0.00000  	0.00000  
92.78819  	33.29571  	4.85682  	5.06922  	27.79278  	-1.18512  	0.02607  	0.18039  	0.18205  	-3.02442  	0.00538  	-0.08561  	-69.79141  	-1.05293  	53.73088  	53.23980  	-20396.09140  	-4177.37527  	0.00429  	0.00003  	0.00402  	0.00450  	0.00481  	0.00000  	0.00000  
93.78874  	33.29464  	4.85677  	5.06886  	27.79692  	-1.18512  	0.02648  	0.18086  	0.17642  	-3.02442  	0.00702  	-0.08579  	-69.72532  	-1.05136  	52.06817  	53.37987  	-20396.76591  	-4177.35043  	0.00428  	0.00002  	0.00402  	0.00451  	0.00481  	0.00000  	0.00000  
94.78855  	33.29454  	4.85702  	5.06859  	27.80140  	-1.18512  	0.02640  	0.17857  	0.18268  	-3.02442  	0.00777  	-0.08578  	-69.66723  	-1.04885  	53.91711  	52.70189  	-20397.72562  	-4177.34945  	0.00429  	0.00002  	0.00402  	0.00451  	0.00480  	0.00000  	0.00000  
95.78828  	33.29489  	4.85688  	5.06923  	27.80658  	-1.18512  	0.02553  	0.17793  	0.17710  	-3.02442  	0.00517  	-0.08568  	-69.60604  	-1.05267  	52.26965  	52.51421  	-20398.93895  	-4177.37905  	0.00428  	0.00003  	0.00402  	0.00449  	0.00479  	0.00000  	0.00000  
96.78852  	33.29434  	4.85722  	5.06913  	27.81042  	-1.18512  	0.02694  	0.17584  	0.17794  	-3.02442  	0.00928  	-0.08580  	-69.55036  	-1.05051  	52.51729  	51.89785  	-20399.65834  	-4177.39374  	0.00428  	0.00002  	0.00403  	0.00452  	0.00479  	0.00000  	0.00000  
97.78848  	33.29385  	4.85576  	5.06825  	27.81385  	-1.18512  	0.02723  	0.17760  	0.17509  	-3.02442  	0.00799  	-0.08571  	-69.50068  	-1.05337  	51.67502  	52.41584  	-20400.30376  	-4177.25407  	0.00428  	0.00003  	0.00403  	0.00452  	0.00479  	0.00000  	0.00000  
98.78881  	33.29427  	4.85586  	5.06831  	27.81579  	-1.18512  	0.02428  	0.17519  	0.18066  	-3.02442  	0.00814  	-0.08566  	-69.48132  	-1.05320  	53.31930  	51.70399  	-20400.81988  	-4177.26334  	0.00429  	0.00003  	0.00403  	0.00447  	0.00478  	0.00000  	0.00000  
99.78923  	33.29369  	4.85629  	5.06821  	27.81754  	-1.18512  	0.02489  	0.17427  	0.17605  	-3.02442  	0.00843  	-0.08570  	-69.45184  	-1.05055  	51.95800  	51.43375  	-20401.07640  	-4177.28270  	0.00428  	0.00003  	0.00403  	0.00448  	0.00478  	0.00000  	0.00000  
100.78898  	33.29289  	4.85637  	5.06752  	27.81893  	-1.18512  	0.02716  	0.17267  	0.17294  	-3.02442  	0.00864  	-0.08559  	-69.42417  	-1.04677  	51.04133  	50.96280  	-20401.20609  	-4177.24663  	0.00428  	0.00003  	0.00403  	0.00452  	0.00477  	0.00000  	0.00000  
101.79178  	33.29241  	4.85639  	5.06816  	27.81864  	-1.18512  	0.02684  	0.17217  	0.17801  	-3.02442  	0.00709  	-0.08569  	-69.42158  	-1.04980  	52.53860  	50.81495  	-20401.03678  	-4177.28588  	0.00428  	0.00003  	0.00402  	0.00452  	0.00477  	0.00000  	0.00000  
102.79147  	33.29159  	4.85640  	5.06817  	27.81827  	-1.18512  	0.02559  	0.17145  	0.17308  	-3.02442  	0.00788  	-0.08568  	-69.41598  	-1.04983  	51.08223  	50.60017  	-20400.77510  	-4177.28716  	0.00428  	0.00003  	0.00403  	0.00449  	0.00477  	0.00000  	0.00000  
