10/18/2024 17:13:57Time	T_hot_in(C)	T_cold_in(C)	T_cold_out(C)	T_hot_out(C)	mdot_cold(kg/s)	ASFASIFUAS(kg/s)	Diferencial_cold(bar)	Diferencial_hot(bar)	mdot_hot(kg/s)	ABS_cold(bar)	ABS_hot(bar)	q_cold(kW)	q_hot(kW)	ASFASYFY	Tau_cold_haste	Re_hot	Re_cold	U_global	PSIG_cold(bar)	R_fouling	PSIG_hot(bar)	PSID_hot(bar)	m_dot_hot	PSID_cold(bar)	m_dot_cold
1.75035  	0.00000  	0.00000  	0.00000  	0.00000  	-1.18512  	-0.20833  	-0.86278  	-2.50000  	-3.02442  	-1.25000  	-0.08628  	-0.00000  	-0.00000  	-737.84722  	-254.63905  	-9234.48090  	-3618.55272  	0.00000  	0.00000  	0.00000  	0.00000  	0.00000  	0.00000  	0.00000  
2.75366  	29.62946  	49.63271  	49.47495  	36.38616  	-1.18512  	0.02237  	0.52188  	0.51908  	-3.02442  	0.06138  	-0.08572  	-85.44745  	-0.78202  	153.20048  	154.02710  	-21483.92889  	-11402.30720  	0.00483  	0.00003  	0.00420  	0.00443  	0.00638  	0.00000  	0.00000  
3.75698  	29.63189  	49.63155  	49.47441  	36.38341  	-1.18512  	0.02224  	0.52706  	0.51884  	-3.02442  	0.06229  	-0.08570  	-85.38183  	-0.77899  	153.13042  	155.55465  	-21483.85973  	-11402.14888  	0.00483  	0.00003  	0.00420  	0.00443  	0.00640  	0.00000  	0.00000  
4.75730  	29.63503  	49.63168  	49.47279  	36.37947  	-1.18512  	0.02422  	0.52886  	0.51769  	-3.02442  	0.06340  	-0.08573  	-85.29234  	-0.78768  	152.78916  	156.08628  	-21483.68025  	-11402.00951  	0.00483  	0.00003  	0.00420  	0.00446  	0.00641  	0.00000  	0.00000  
5.76061  	29.63834  	49.63271  	49.47271  	36.37486  	-1.18512  	0.02358  	0.53090  	0.52692  	-3.02442  	0.06289  	-0.08566  	-85.19207  	-0.79312  	155.51325  	156.68782  	-21483.39192  	-11402.09837  	0.00484  	0.00003  	0.00420  	0.00445  	0.00642  	0.00000  	0.00000  
6.76294  	29.64151  	49.63250  	49.47346  	36.37033  	-1.18512  	0.02293  	0.53284  	0.52753  	-3.02442  	0.06056  	-0.08566  	-85.09474  	-0.78840  	155.69460  	157.26224  	-21483.08801  	-11402.14853  	0.00484  	0.00003  	0.00419  	0.00444  	0.00643  	0.00000  	0.00000  
7.76523  	29.64449  	49.63223  	49.47295  	36.36368  	-1.18512  	0.02449  	0.53500  	0.52718  	-3.02442  	0.06205  	-0.08567  	-84.97296  	-0.78959  	155.59075  	157.89938  	-21482.27162  	-11402.07571  	0.00484  	0.00003  	0.00420  	0.00447  	0.00644  	0.00000  	0.00000  
8.76657  	29.64680  	49.63182  	49.47276  	36.35626  	-1.18512  	0.02415  	0.53726  	0.52803  	-3.02442  	0.06179  	-0.08567  	-84.84998  	-0.78851  	155.84186  	158.56755  	-21481.13683  	-11402.01973  	0.00484  	0.00003  	0.00420  	0.00446  	0.00645  	0.00000  	0.00000  
9.76989  	29.64872  	49.63157  	49.47208  	36.34870  	-1.18512  	0.02469  	0.53607  	0.52812  	-3.02442  	0.06308  	-0.08573  	-84.73007  	-0.79061  	155.86808  	158.21631  	-21479.88368  	-11401.93258  	0.00484  	0.00003  	0.00420  	0.00447  	0.00645  	0.00000  	0.00000  
10.77321  	29.65148  	49.63137  	49.47211  	36.34039  	-1.18512  	0.02338  	0.53248  	0.52432  	-3.02442  	0.06357  	-0.08574  	-84.59005  	-0.78947  	154.74604  	157.15506  	-21478.65131  	-11401.91743  	0.00484  	0.00003  	0.00420  	0.00445  	0.00643  	0.00000  	0.00000  
11.77353  	29.65487  	49.63144  	49.47080  	36.33220  	-1.18512  	0.02365  	0.52962  	0.51988  	-3.02442  	0.06237  	-0.08570  	-84.44361  	-0.79635  	153.43630  	156.31108  	-21477.58444  	-11401.80194  	0.00483  	0.00003  	0.00420  	0.00445  	0.00642  	0.00000  	0.00000  
12.77685  	29.65468  	49.63133  	49.47125  	36.32319  	-1.18512  	0.02396  	0.52601  	0.51860  	-3.02442  	0.06210  	-0.08566  	-84.33202  	-0.79354  	153.05802  	155.24573  	-21475.53715  	-11401.83429  	0.00483  	0.00003  	0.00420  	0.00446  	0.00640  	0.00000  	0.00000  
13.78014  	29.65575  	49.63178  	49.47173  	36.31653  	-1.18512  	0.02225  	0.52249  	0.51549  	-3.02442  	0.06220  	-0.08569  	-84.23424  	-0.79341  	152.14259  	154.20795  	-21474.29454  	-11401.91959  	0.00482  	0.00003  	0.00420  	0.00443  	0.00638  	0.00000  	0.00000  
14.78149  	29.65660  	49.63188  	49.47061  	36.31144  	-1.18512  	0.02241  	0.51979  	0.51328  	-3.02442  	0.06242  	-0.08574  	-84.15926  	-0.79947  	151.48922  	153.40916  	-21473.35248  	-11401.82542  	0.00482  	0.00003  	0.00420  	0.00443  	0.00637  	0.00000  	0.00000  
15.78480  	29.65716  	49.63159  	49.47130  	36.30687  	-1.18512  	0.02177  	0.51528  	0.50799  	-3.02442  	0.06243  	-0.08567  	-84.09432  	-0.79458  	149.92614  	152.08035  	-21472.45955  	-11401.86273  	0.00481  	0.00003  	0.00420  	0.00442  	0.00635  	0.00000  	0.00000  
16.78809  	29.65881  	49.63197  	49.47146  	36.30358  	-1.18512  	0.02269  	0.51093  	0.50294  	-3.02442  	0.06265  	-0.08568  	-84.03176  	-0.79569  	148.43613  	150.79632  	-21472.09561  	-11401.91240  	0.00480  	0.00003  	0.00420  	0.00444  	0.00633  	0.00000  	0.00000  
17.78844  	29.65876  	49.63154  	49.47116  	36.30282  	-1.18512  	0.02189  	0.50772  	0.49831  	-3.02442  	0.06084  	-0.08563  	-84.02294  	-0.79505  	147.07034  	149.84824  	-21471.91671  	-11401.84512  	0.00480  	0.00003  	0.00419  	0.00442  	0.00631  	0.00000  	0.00000  
18.79073  	29.65936  	49.63243  	49.47205  	36.30338  	-1.18512  	0.02331  	0.50491  	0.49562  	-3.02442  	0.06216  	-0.08571  	-84.02235  	-0.79499  	146.27721  	149.01910  	-21472.17422  	-11402.01061  	0.00479  	0.00003  	0.00420  	0.00445  	0.00630  	0.00000  	0.00000  
19.79308  	29.66084  	49.63246  	49.47181  	36.30519  	-1.18512  	0.02238  	0.50076  	0.48882  	-3.02442  	0.06184  	-0.08565  	-84.02651  	-0.79636  	144.26953  	147.79417  	-21472.90383  	-11401.99122  	0.00478  	0.00003  	0.00420  	0.00443  	0.00628  	0.00000  	0.00000  
20.79440  	29.66113  	49.63285  	49.47348  	36.30863  	-1.18512  	0.02165  	0.49624  	0.48738  	-3.02442  	0.06224  	-0.08573  	-84.06630  	-0.79000  	143.84427  	146.45861  	-21473.73375  	-11402.18314  	0.00478  	0.00003  	0.00420  	0.00442  	0.00626  	0.00000  	0.00000  
21.79669  	29.66169  	49.63317  	49.47418  	36.31240  	-1.18512  	0.02350  	0.49306  	0.48127  	-3.02442  	0.06175  	-0.08572  	-84.10696  	-0.78815  	142.04124  	145.52073  	-21474.69500  	-11402.27840  	0.00477  	0.00003  	0.00420  	0.00445  	0.00625  	0.00000  	0.00000  
22.80003  	29.66300  	49.63372  	49.47412  	36.31899  	-1.18512  	0.02302  	0.48841  	0.47842  	-3.02442  	0.06266  	-0.08573  	-84.17369  	-0.79117  	141.20030  	144.14861  	-21476.45224  	-11402.32330  	0.00477  	0.00003  	0.00420  	0.00444  	0.00623  	0.00000  	0.00000  
23.80133  	29.66354  	49.63346  	49.47426  	36.32604  	-1.18512  	0.02199  	0.48363  	0.47333  	-3.02442  	0.06221  	-0.08576  	-84.25611  	-0.78916  	139.69813  	142.73761  	-21478.13960  	-11402.31325  	0.00476  	0.00002  	0.00420  	0.00442  	0.00620  	0.00000  	0.00000  
24.80465  	29.66465  	49.63490  	49.47472  	36.33521  	-1.18512  	0.02210  	0.47979  	0.47149  	-3.02442  	0.06385  	-0.08580  	-84.35791  	-0.79400  	139.15466  	141.60415  	-21480.42517  	-11402.48994  	0.00475  	0.00002  	0.00420  	0.00442  	0.00619  	0.00000  	0.00000  
25.80700  	29.66506  	49.63513  	49.47506  	36.34495  	-1.18512  	0.02187  	0.48051  	0.47104  	-3.02442  	0.06185  	-0.08571  	-84.47606  	-0.79349  	139.02347  	141.81612  	-21482.68125  	-11402.54297  	0.00475  	0.00003  	0.00420  	0.00442  	0.00619  	0.00000  	0.00000  
26.80831  	29.66541  	49.63552  	49.47630  	36.35478  	-1.18512  	0.02244  	0.48333  	0.47260  	-3.02442  	0.06118  	-0.08571  	-84.59586  	-0.78925  	139.48142  	142.64844  	-21484.94513  	-11402.69489  	0.00476  	0.00003  	0.00420  	0.00443  	0.00620  	0.00000  	0.00000  
27.81163  	29.66557  	49.63688  	49.47683  	36.36621  	-1.18512  	0.02283  	0.48757  	0.47977  	-3.02442  	0.06265  	-0.08575  	-84.73831  	-0.79339  	141.59764  	143.90059  	-21487.52228  	-11402.87071  	0.00477  	0.00002  	0.00420  	0.00444  	0.00622  	0.00000  	0.00000  
28.81494  	29.66814  	49.63625  	49.47782  	36.37882  	-1.18512  	0.02310  	0.49236  	0.48075  	-3.02442  	0.06053  	-0.08574  	-84.86542  	-0.78536  	141.88840  	145.31571  	-21490.89667  	-11402.90503  	0.00477  	0.00002  	0.00419  	0.00444  	0.00624  	0.00000  	0.00000  
29.81627  	29.67048  	49.63760  	49.47914  	36.38836  	-1.18512  	0.02170  	0.49658  	0.49073  	-3.02442  	0.06377  	-0.08575  	-84.95644  	-0.78552  	144.83365  	146.56146  	-21493.53717  	-11403.15397  	0.00479  	0.00002  	0.00420  	0.00442  	0.00626  	0.00000  	0.00000  
30.81759  	29.67244  	49.63819  	49.47962  	36.39773  	-1.18512  	0.02131  	0.50250  	0.49143  	-3.02442  	0.06196  	-0.08569  	-85.05013  	-0.78607  	145.03937  	148.30595  	-21496.05685  	-11403.25449  	0.00479  	0.00003  	0.00420  	0.00441  	0.00629  	0.00000  	0.00000  
31.82091  	29.67577  	49.63832  	49.48057  	36.40675  	-1.18512  	0.02269  	0.50815  	0.49766  	-3.02442  	0.06216  	-0.08571  	-85.12213  	-0.78196  	146.87845  	149.97372  	-21498.80362  	-11403.35427  	0.00480  	0.00003  	0.00420  	0.00444  	0.00632  	0.00000  	0.00000  
32.82422  	29.67914  	49.63993  	49.48088  	36.41211  	-1.18512  	0.02351  	0.51216  	0.50386  	-3.02442  	0.06256  	-0.08579  	-85.14728  	-0.78842  	148.71013  	151.15977  	-21500.74388  	-11403.53348  	0.00481  	0.00002  	0.00420  	0.00445  	0.00633  	0.00000  	0.00000  
33.82554  	29.68101  	49.64166  	49.48233  	36.41516  	-1.18512  	0.02359  	0.51550  	0.50685  	-3.02442  	0.06119  	-0.08574  	-85.16212  	-0.78984  	149.59005  	152.14273  	-21501.83753  	-11403.83032  	0.00481  	0.00003  	0.00420  	0.00445  	0.00635  	0.00000  	0.00000  
34.82786  	29.68310  	49.64212  	49.48360  	36.41752  	-1.18512  	0.02265  	0.51998  	0.51194  	-3.02442  	0.06188  	-0.08571  	-85.16547  	-0.78580  	151.09403  	153.46708  	-21502.82725  	-11403.99144  	0.00482  	0.00003  	0.00420  	0.00443  	0.00637  	0.00000  	0.00000  
35.83118  	29.68651  	49.64272  	49.48448  	36.41613  	-1.18512  	0.02393  	0.52243  	0.51409  	-3.02442  	0.06253  	-0.08569  	-85.10495  	-0.78440  	151.72673  	154.19004  	-21503.27605  	-11404.12983  	0.00482  	0.00003  	0.00420  	0.00446  	0.00638  	0.00000  	0.00000  
36.83250  	29.68936  	49.64324  	49.48357  	36.41504  	-1.18512  	0.02301  	0.52548  	0.51910  	-3.02442  	0.06242  	-0.08574  	-85.05498  	-0.79151  	153.20525  	155.08992  	-21503.66870  	-11404.09343  	0.00483  	0.00003  	0.00420  	0.00444  	0.00640  	0.00000  	0.00000  
37.83581  	29.69107  	49.64450  	49.48453  	36.41200  	-1.18512  	0.02231  	0.52887  	0.52010  	-3.02442  	0.06299  	-0.08568  	-84.99493  	-0.79299  	153.50256  	156.08976  	-21503.37332  	-11404.29986  	0.00483  	0.00003  	0.00420  	0.00443  	0.00641  	0.00000  	0.00000  
38.83913  	29.69275  	49.64605  	49.48586  	36.40762  	-1.18512  	0.02200  	0.53186  	0.52319  	-3.02442  	0.06360  	-0.08574  	-84.91841  	-0.79408  	154.41403  	156.97262  	-21502.77118  	-11404.56849  	0.00484  	0.00003  	0.00420  	0.00442  	0.00643  	0.00000  	0.00000  
39.83945  	29.69564  	49.64673  	49.48693  	36.40150  	-1.18512  	0.02344  	0.53312  	0.52811  	-3.02442  	0.06227  	-0.08555  	-84.80444  	-0.79216  	155.86613  	157.34392  	-21502.05414  	-11404.73281  	0.00484  	0.00003  	0.00420  	0.00445  	0.00643  	0.00000  	0.00000  
40.84277  	29.69738  	49.64830  	49.48891  	36.39449  	-1.18512  	0.02424  	0.53625  	0.53206  	-3.02442  	0.06113  	-0.08574  	-84.69377  	-0.79012  	157.03179  	158.26733  	-21500.88312  	-11405.06235  	0.00485  	0.00003  	0.00420  	0.00447  	0.00645  	0.00000  	0.00000  
41.84509  	29.70013  	49.64858  	49.49024  	36.38699  	-1.18512  	0.02268  	0.53796  	0.53074  	-3.02442  	0.06156  	-0.08564  	-84.56423  	-0.78493  	156.64298  	158.77424  	-21499.82565  	-11405.21345  	0.00485  	0.00003  	0.00420  	0.00444  	0.00645  	0.00000  	0.00000  
42.84641  	29.70211  	49.65063  	49.49000  	36.37882  	-1.18512  	0.02347  	0.53865  	0.53116  	-3.02442  	0.06220  	-0.08565  	-84.43574  	-0.79627  	156.76567  	158.97772  	-21498.44869  	-11405.38278  	0.00485  	0.00003  	0.00420  	0.00445  	0.00646  	0.00000  	0.00000  
43.84972  	29.70227  	49.65098  	49.49050  	36.36921  	-1.18512  	0.02303  	0.53639  	0.52694  	-3.02442  	0.06208  	-0.08573  	-84.31221  	-0.79554  	155.52119  	158.30971  	-21496.35000  	-11405.46163  	0.00484  	0.00003  	0.00420  	0.00444  	0.00645  	0.00000  	0.00000  
44.85304  	29.70413  	49.65230  	49.49155  	36.36055  	-1.18512  	0.02467  	0.53416  	0.52132  	-3.02442  	0.06078  	-0.08568  	-84.17917  	-0.79686  	153.86287  	157.65066  	-21494.83462  	-11405.68245  	0.00483  	0.00003  	0.00419  	0.00447  	0.00644  	0.00000  	0.00000  
45.85436  	29.70535  	49.65242  	49.49279  	36.35247  	-1.18512  	0.02341  	0.53057  	0.52389  	-3.02442  	0.06026  	-0.08562  	-84.06156  	-0.79132  	154.62059  	156.59247  	-21493.30985  	-11405.80966  	0.00484  	0.00003  	0.00419  	0.00445  	0.00642  	0.00000  	0.00000  
46.85768  	29.70620  	49.65413  	49.49330  	36.34410  	-1.18512  	0.02351  	0.52631  	0.51981  	-3.02442  	0.06340  	-0.08570  	-83.94496  	-0.79726  	153.41711  	155.33378  	-21491.63890  	-11406.01612  	0.00483  	0.00003  	0.00420  	0.00445  	0.00640  	0.00000  	0.00000  
47.86099  	29.70704  	49.65569  	49.49504  	36.33709  	-1.18512  	0.02321  	0.52265  	0.51481  	-3.02442  	0.06154  	-0.08565  	-83.84575  	-0.79636  	151.93915  	154.25327  	-21490.26810  	-11406.32409  	0.00482  	0.00003  	0.00420  	0.00445  	0.00638  	0.00000  	0.00000  
48.86129  	29.70608  	49.65712  	49.49557  	36.33228  	-1.18512  	0.02360  	0.52045  	0.51175  	-3.02442  	0.06208  	-0.08569  	-83.79694  	-0.80084  	151.03658  	153.60466  	-21488.98514  	-11406.50763  	0.00482  	0.00003  	0.00420  	0.00445  	0.00637  	0.00000  	0.00000  
49.86463  	29.70681  	49.65759  	49.49687  	36.32793  	-1.18512  	0.02366  	0.51631  	0.50970  	-3.02442  	0.06219  	-0.08573  	-83.73269  	-0.79671  	150.43331  	152.38388  	-21488.18027  	-11406.67117  	0.00482  	0.00003  	0.00420  	0.00445  	0.00635  	0.00000  	0.00000  
50.86793  	29.70679  	49.65778  	49.49800  	36.32551  	-1.18512  	0.02336  	0.51252  	0.50638  	-3.02442  	0.06149  	-0.08561  	-83.70237  	-0.79210  	149.45228  	151.26548  	-21487.63558  	-11406.79519  	0.00481  	0.00003  	0.00420  	0.00445  	0.00634  	0.00000  	0.00000  
51.87124  	29.70701  	49.66054  	49.49973  	36.32448  	-1.18512  	0.02256  	0.50881  	0.50070  	-3.02442  	0.06129  	-0.08570  	-83.68662  	-0.79715  	147.77547  	150.17027  	-21487.45744  	-11407.21425  	0.00480  	0.00003  	0.00420  	0.00443  	0.00632  	0.00000  	0.00000  
52.87256  	29.70749  	49.66197  	49.50166  	36.32463  	-1.18512  	0.02155  	0.50440  	0.49470  	-3.02442  	0.06081  	-0.08574  	-83.68233  	-0.79469  	146.00641  	148.86814  	-21487.59722  	-11407.52681  	0.00479  	0.00002  	0.00419  	0.00441  	0.00630  	0.00000  	0.00000  
53.87591  	29.70762  	49.66310  	49.50258  	36.32681  	-1.18512  	0.02276  	0.50024  	0.49480  	-3.02442  	0.06164  	-0.08563  	-83.70831  	-0.79571  	146.03509  	147.64094  	-21488.11035  	-11407.71840  	0.00479  	0.00003  	0.00420  	0.00444  	0.00628  	0.00000  	0.00000  
54.87922  	29.70766  	49.66372  	49.50333  	36.33009  	-1.18512  	0.02236  	0.49724  	0.48499  	-3.02442  	0.06006  	-0.08564  	-83.74931  	-0.79507  	143.13942  	146.75413  	-21488.84867  	-11407.84680  	0.00478  	0.00003  	0.00419  	0.00443  	0.00627  	0.00000  	0.00000  
55.88054  	29.70880  	49.66507  	49.50495  	36.33550  	-1.18512  	0.02224  	0.49360  	0.48201  	-3.02442  	0.06190  	-0.08571  	-83.80337  	-0.79377  	142.26119  	145.68073  	-21490.30635  	-11408.12312  	0.00477  	0.00003  	0.00420  	0.00443  	0.00625  	0.00000  	0.00000  
56.88284  	29.70831  	49.66612  	49.50664  	36.34185  	-1.18512  	0.02164  	0.48969  	0.47937  	-3.02442  	0.06275  	-0.08564  	-83.88982  	-0.79055  	141.48146  	144.52632  	-21491.60670  	-11408.37911  	0.00477  	0.00003  	0.00420  	0.00442  	0.00623  	0.00000  	0.00000  
57.88618  	29.70886  	49.66809  	49.50877  	36.34954  	-1.18512  	0.02253  	0.48451  	0.47495  	-3.02442  	0.06214  	-0.08575  	-83.98000  	-0.78976  	140.17628  	142.99828  	-21493.44020  	-11408.76103  	0.00476  	0.00002  	0.00420  	0.00443  	0.00621  	0.00000  	0.00000  
58.88750  	29.70862  	49.66908  	49.50880  	36.35665  	-1.18512  	0.02126  	0.48190  	0.47179  	-3.02442  	0.06312  	-0.08568  	-84.07297  	-0.79454  	139.24433  	142.22833  	-21494.96769  	-11408.85633  	0.00475  	0.00003  	0.00420  	0.00441  	0.00620  	0.00000  	0.00000  
59.89082  	29.70997  	49.67069  	49.51159  	36.36937  	-1.18512  	0.02338  	0.48509  	0.47719  	-3.02442  	0.06228  	-0.08574  	-84.21687  	-0.78868  	140.83853  	143.16765  	-21498.09450  	-11409.26634  	0.00476  	0.00003  	0.00420  	0.00445  	0.00621  	0.00000  	0.00000  
60.89314  	29.71028  	49.67162  	49.51316  	36.38005  	-1.18512  	0.02203  	0.49002  	0.47584  	-3.02442  	0.06130  	-0.08569  	-84.34802  	-0.78555  	140.43952  	144.62343  	-21500.54113  	-11409.49993  	0.00476  	0.00003  	0.00420  	0.00442  	0.00623  	0.00000  	0.00000  
61.89445  	29.71149  	49.67339  	49.51427  	36.39043  	-1.18512  	0.02229  	0.49511  	0.48367  	-3.02442  	0.06072  	-0.08562  	-84.46405  	-0.78878  	142.75019  	146.12759  	-21503.11622  	-11409.76889  	0.00477  	0.00003  	0.00419  	0.00443  	0.00626  	0.00000  	0.00000  
62.89677  	29.71211  	49.67389  	49.51496  	36.40034  	-1.18512  	0.02202  	0.50043  	0.49281  	-3.02442  	0.06373  	-0.08570  	-84.58147  	-0.78785  	145.44604  	147.69617  	-21505.45953  	-11409.88024  	0.00479  	0.00003  	0.00420  	0.00442  	0.00628  	0.00000  	0.00000  
63.90006  	29.71552  	49.67596  	49.51712  	36.41072  	-1.18512  	0.02354  	0.50431  	0.49679  	-3.02442  	0.06255  	-0.08569  	-84.66965  	-0.78737  	146.62102  	148.84242  	-21508.52572  	-11410.27388  	0.00479  	0.00003  	0.00420  	0.00445  	0.00630  	0.00000  	0.00000  
64.90142  	29.71738  	49.67641  	49.51806  	36.41774  	-1.18512  	0.02346  	0.50849  	0.50410  	-3.02442  	0.06277  	-0.08562  	-84.73486  	-0.78495  	148.78016  	150.07576  	-21510.49893  	-11410.40375  	0.00481  	0.00003  	0.00420  	0.00445  	0.00632  	0.00000  	0.00000  
65.90473  	29.71968  	49.67864  	49.52001  	36.42322  	-1.18512  	0.02350  	0.51380  	0.50616  	-3.02442  	0.06409  	-0.08570  	-84.77507  	-0.78633  	149.38617  	151.64379  	-21512.22988  	-11410.79385  	0.00481  	0.00003  	0.00421  	0.00445  	0.00634  	0.00000  	0.00000  
66.90805  	29.72213  	49.68093  	49.52151  	36.42835  	-1.18512  	0.02197  	0.51501  	0.50993  	-3.02442  	0.06257  	-0.08563  	-84.80901  	-0.79027  	150.50063  	152.00038  	-21513.91620  	-11411.14746  	0.00482  	0.00003  	0.00420  	0.00442  	0.00635  	0.00000  	0.00000  
67.90937  	29.72484  	49.68129  	49.52306  	36.43065  	-1.18512  	0.02143  	0.51884  	0.50742  	-3.02442  	0.06149  	-0.08570  	-84.80380  	-0.78433  	149.75897  	153.12931  	-21515.02825  	-11411.32544  	0.00481  	0.00003  	0.00420  	0.00441  	0.00637  	0.00000  	0.00000  
68.91068  	29.72548  	49.68409  	49.52471  	36.43104  	-1.18512  	0.02322  	0.52387  	0.51462  	-3.02442  	0.06398  	-0.08572  	-84.80066  	-0.79010  	151.88524  	154.61466  	-21515.25912  	-11411.74055  	0.00482  	0.00003  	0.00420  	0.00445  	0.00639  	0.00000  	0.00000  
69.91401  	29.72733  	49.68484  	49.52604  	36.42927  	-1.18512  	0.02290  	0.52615  	0.51832  	-3.02442  	0.05978  	-0.08566  	-84.75482  	-0.78719  	152.97605  	155.28647  	-21515.27550  	-11411.93542  	0.00483  	0.00003  	0.00419  	0.00444  	0.00640  	0.00000  	0.00000  
70.91433  	29.72946  	49.68632  	49.52745  	36.42833  	-1.18512  	0.02255  	0.52950  	0.51746  	-3.02442  	0.06105  	-0.08568  	-84.71591  	-0.78754  	152.72352  	156.27627  	-21515.54071  	-11412.20447  	0.00483  	0.00003  	0.00420  	0.00443  	0.00641  	0.00000  	0.00000  
71.91662  	29.73192  	49.68837  	49.52807  	36.42267  	-1.18512  	0.02323  	0.53164  	0.52553  	-3.02442  	0.06384  	-0.08575  	-84.61329  	-0.79465  	155.10549  	156.90641  	-21514.82797  	-11412.45282  	0.00484  	0.00002  	0.00420  	0.00445  	0.00642  	0.00000  	0.00000  
72.91997  	29.73407  	49.68941  	49.52880  	36.41849  	-1.18512  	0.02347  	0.53345  	0.52813  	-3.02442  	0.06266  	-0.08569  	-84.53329  	-0.79616  	155.87236  	157.44266  	-21514.37671  	-11412.61800  	0.00485  	0.00003  	0.00420  	0.00445  	0.00643  	0.00000  	0.00000  
73.92029  	29.73513  	49.69084  	49.52956  	36.41273  	-1.18512  	0.02365  	0.53709  	0.52845  	-3.02442  	0.06134  	-0.08570  	-84.44703  	-0.79949  	155.96600  	158.51631  	-21513.33204  	-11412.82253  	0.00485  	0.00003  	0.00420  	0.00445  	0.00645  	0.00000  	0.00000  
74.92365  	29.73694  	49.69335  	49.53209  	36.40717  	-1.18512  	0.02577  	0.53795  	0.53104  	-3.02442  	0.06249  	-0.08579  	-84.35377  	-0.79937  	156.73130  	158.77143  	-21512.49819  	-11413.29277  	0.00485  	0.00002  	0.00420  	0.00449  	0.00645  	0.00000  	0.00000  
75.92697  	29.73847  	49.69461  	49.53302  	36.39827  	-1.18512  	0.02415  	0.53758  	0.53144  	-3.02442  	0.06398  	-0.08565  	-84.22185  	-0.80103  	156.85006  	158.66008  	-21510.85936  	-11413.49653  	0.00485  	0.00003  	0.00420  	0.00446  	0.00645  	0.00000  	0.00000  
76.92826  	29.73956  	49.69616  	49.53482  	36.39060  	-1.18512  	0.02641  	0.53477  	0.52272  	-3.02442  	0.06170  	-0.08563  	-84.11109  	-0.79978  	154.27576  	157.83143  	-21509.39781  	-11413.81029  	0.00484  	0.00003  	0.00420  	0.00451  	0.00644  	0.00000  	0.00000  
77.93158  	29.74050  	49.69764  	49.53677  	36.38304  	-1.18512  	0.02492  	0.53097  	0.52348  	-3.02442  	0.06211  	-0.08565  	-84.00358  	-0.79744  	154.49840  	156.70990  	-21507.92334  	-11414.12985  	0.00484  	0.00003  	0.00420  	0.00448  	0.00642  	0.00000  	0.00000  
78.93493  	29.74120  	49.69914  	49.53856  	36.37520  	-1.18512  	0.02376  	0.52862  	0.51944  	-3.02442  	0.06145  	-0.08570  	-83.89557  	-0.79603  	153.30655  	156.01567  	-21506.33697  	-11414.43599  	0.00483  	0.00003  	0.00420  	0.00446  	0.00641  	0.00000  	0.00000  
79.93824  	29.74061  	49.70135  	49.54012  	36.36812  	-1.18512  	0.02410  	0.52400  	0.51592  	-3.02442  	0.06234  	-0.08565  	-83.81356  	-0.79924  	152.26704  	154.65198  	-21504.63150  	-11414.78764  	0.00483  	0.00003  	0.00420  	0.00446  	0.00639  	0.00000  	0.00000  
80.93956  	29.74053  	49.70292  	49.54114  	36.36255  	-1.18512  	0.02328  	0.52053  	0.51139  	-3.02442  	0.06044  	-0.08561  	-83.74419  	-0.80197  	150.93180  	153.62906  	-21503.37505  	-11415.02944  	0.00482  	0.00003  	0.00419  	0.00445  	0.00637  	0.00000  	0.00000  
81.94288  	29.74090  	49.70383  	49.54263  	36.35882  	-1.18512  	0.02300  	0.51754  	0.50644  	-3.02442  	0.06253  	-0.08565  	-83.69225  	-0.79914  	149.46876  	152.74519  	-21502.62622  	-11415.25394  	0.00481  	0.00003  	0.00420  	0.00444  	0.00636  	0.00000  	0.00000  
82.94619  	29.73963  	49.70629  	49.54468  	36.35709  	-1.18512  	0.02254  	0.51379  	0.50450  	-3.02442  	0.06309  	-0.08565  	-83.68656  	-0.80111  	148.89610  	151.63943  	-21501.96069  	-11415.67489  	0.00481  	0.00003  	0.00420  	0.00443  	0.00634  	0.00000  	0.00000  
83.94751  	29.74133  	49.70806  	49.54609  	36.35567  	-1.18512  	0.02123  	0.50905  	0.49621  	-3.02442  	0.06211  	-0.08569  	-83.64701  	-0.80293  	146.44989  	150.24044  	-21502.02309  	-11415.97114  	0.00479  	0.00003  	0.00420  	0.00441  	0.00632  	0.00000  	0.00000  
84.94881  	29.74095  	49.70908  	49.54767  	36.35526  	-1.18512  	0.02130  	0.50479  	0.49617  	-3.02442  	0.06185  	-0.08571  	-83.64658  	-0.80016  	146.43981  	148.98425  	-21501.84586  	-11416.21355  	0.00479  	0.00003  	0.00420  	0.00441  	0.00630  	0.00000  	0.00000  
85.95215  	29.74074  	49.70995  	49.54939  	36.35680  	-1.18512  	0.02328  	0.50123  	0.49046  	-3.02442  	0.06194  	-0.08564  	-83.66868  	-0.79588  	144.75318  	147.93172  	-21502.14230  	-11416.45535  	0.00478  	0.00003  	0.00420  	0.00445  	0.00628  	0.00000  	0.00000  
86.95348  	29.73913  	49.71287  	49.55206  	36.36059  	-1.18512  	0.02202  	0.49690  	0.48834  	-3.02442  	0.06192  	-0.08567  	-83.73709  	-0.79718  	144.12843  	146.65523  	-21502.62656  	-11416.97750  	0.00478  	0.00003  	0.00420  	0.00442  	0.00626  	0.00000  	0.00000  
87.95679  	29.74023  	49.71488  	49.55334  	36.36519  	-1.18512  	0.02197  	0.49285  	0.48331  	-3.02442  	0.06284  	-0.08572  	-83.78138  	-0.80081  	142.64336  	145.45916  	-21503.89537  	-11417.28373  	0.00477  	0.00003  	0.00420  	0.00442  	0.00625  	0.00000  	0.00000  
88.96011  	29.74018  	49.71647  	49.55422  	36.37224  	-1.18512  	0.02263  	0.48904  	0.47554  	-3.02442  	0.06148  	-0.08570  	-83.87110  	-0.80433  	140.35175  	144.33550  	-21505.45162  	-11417.51456  	0.00476  	0.00003  	0.00420  	0.00443  	0.00623  	0.00000  	0.00000  
89.96143  	29.74012  	49.71759  	49.55612  	36.37928  	-1.18512  	0.02163  	0.48538  	0.47520  	-3.02442  	0.06304  	-0.08568  	-83.96094  	-0.80043  	140.24945  	143.25535  	-21507.00398  	-11417.79618  	0.00476  	0.00003  	0.00420  	0.00442  	0.00621  	0.00000  	0.00000  
90.96474  	29.73957  	49.71963  	49.55894  	36.38832  	-1.18512  	0.02116  	0.48164  	0.47413  	-3.02442  	0.06173  	-0.08567  	-84.08208  	-0.79657  	139.93313  	142.15200  	-21508.89094  	-11418.24995  	0.00476  	0.00003  	0.00420  	0.00441  	0.00619  	0.00000  	0.00000  
91.96806  	29.73941  	49.72114  	49.56025  	36.39865  	-1.18512  	0.02191  	0.48298  	0.47313  	-3.02442  	0.06181  	-0.08566  	-84.21489  	-0.79759  	139.63840  	142.54642  	-21511.15378  	-11418.51280  	0.00476  	0.00003  	0.00420  	0.00442  	0.00620  	0.00000  	0.00000  
92.96938  	29.73952  	49.72242  	49.56222  	36.40970  	-1.18512  	0.02217  	0.48899  	0.47807  	-3.02442  	0.06325  	-0.08569  	-84.35322  	-0.79413  	141.09656  	144.31905  	-21513.63443  	-11418.81572  	0.00476  	0.00003  	0.00420  	0.00443  	0.00623  	0.00000  	0.00000  
93.97270  	29.73965  	49.72391  	49.56429  	36.42050  	-1.18512  	0.02223  	0.49442  	0.48199  	-3.02442  	0.06253  	-0.08570  	-84.48799  	-0.79127  	142.25399  	145.92334  	-21516.06569  	-11419.14812  	0.00477  	0.00003  	0.00420  	0.00443  	0.00625  	0.00000  	0.00000  
94.97601  	29.74152  	49.72552  	49.56634  	36.43036  	-1.18512  	0.02218  	0.49859  	0.48885  	-3.02442  	0.06264  	-0.08576  	-84.58919  	-0.78908  	144.27971  	147.15364  	-21518.67479  	-11419.48976  	0.00478  	0.00002  	0.00420  	0.00443  	0.00627  	0.00000  	0.00000  
95.97731  	29.74402  	49.72791  	49.56805  	36.44016  	-1.18512  	0.02280  	0.50252  	0.49444  	-3.02442  	0.06178  	-0.08575  	-84.68153  	-0.79245  	145.92703  	148.31343  	-21521.41082  	-11419.87178  	0.00479  	0.00002  	0.00420  	0.00444  	0.00629  	0.00000  	0.00000  
96.97963  	29.74553  	49.72921  	49.56998  	36.44783  	-1.18512  	0.02265  	0.50713  	0.49640  	-3.02442  	0.06107  	-0.08569  	-84.75947  	-0.78933  	146.50740  	149.67250  	-21523.45161  	-11420.17354  	0.00479  	0.00003  	0.00420  	0.00443  	0.00631  	0.00000  	0.00000  
97.98296  	29.74709  	49.73073  	49.57211  	36.45538  	-1.18512  	0.02154  	0.51092  	0.50408  	-3.02442  	0.06078  	-0.08565  	-84.83518  	-0.78630  	148.77407  	150.79260  	-21525.47794  	-11420.51359  	0.00481  	0.00003  	0.00419  	0.00441  	0.00633  	0.00000  	0.00000  
98.98429  	29.75022  	49.73239  	49.57347  	36.46042  	-1.18512  	0.02213  	0.51510  	0.50551  	-3.02442  	0.06282  	-0.08565  	-84.85926  	-0.78780  	149.19448  	152.02586  	-21527.29676  	-11420.79648  	0.00481  	0.00003  	0.00420  	0.00442  	0.00635  	0.00000  	0.00000  
99.98661  	29.75102  	49.73519  	49.57401  	36.46277  	-1.18512  	0.02265  	0.51852  	0.51343  	-3.02442  	0.06211  	-0.08568  	-84.87879  	-0.79896  	151.53197  	153.03481  	-21527.99648  	-11421.10726  	0.00482  	0.00003  	0.00420  	0.00443  	0.00636  	0.00000  	0.00000  
100.98993  	29.75268  	49.73626  	49.57603  	36.46388  	-1.18512  	0.02428  	0.52226  	0.51306  	-3.02442  	0.06182  	-0.08569  	-84.87191  	-0.79431  	151.42305  	154.13827  	-21528.61094  	-11421.39576  	0.00482  	0.00003  	0.00420  	0.00447  	0.00638  	0.00000  	0.00000  
101.99321  	29.75475  	49.73779  	49.57707  	36.46249  	-1.18512  	0.02355  	0.52485  	0.51561  	-3.02442  	0.06238  	-0.08566  	-84.82810  	-0.79669  	152.17706  	154.90491  	-21528.76420  	-11421.63525  	0.00482  	0.00003  	0.00420  	0.00445  	0.00639  	0.00000  	0.00000  
102.99454  	29.75662  	49.73946  	49.57911  	36.46025  	-1.18512  	0.02288  	0.52858  	0.52139  	-3.02442  	0.06057  	-0.08568  	-84.77618  	-0.79487  	153.88363  	156.00470  	-21528.68064  	-11421.98210  	0.00483  	0.00003  	0.00419  	0.00444  	0.00641  	0.00000  	0.00000  
103.99688  	29.75809  	49.74192  	49.57994  	36.45678  	-1.18512  	0.02156  	0.53096  	0.52133  	-3.02442  	0.06221  	-0.08573  	-84.71372  	-0.80299  	153.86530  	156.70741  	-21528.23718  	-11422.28879  	0.00483  	0.00003  	0.00420  	0.00441  	0.00642  	0.00000  	0.00000  
105.00019  	29.76030  	49.74309  	49.58123  	36.45244  	-1.18512  	0.02303  	0.53284  	0.52466  	-3.02442  	0.06330  	-0.08569  	-84.63088  	-0.80236  	154.84836  	157.26039  	-21527.76298  	-11422.51819  	0.00484  	0.00003  	0.00420  	0.00444  	0.00643  	0.00000  	0.00000  
106.00052  	29.76035  	49.74491  	49.58382  	36.44690  	-1.18512  	0.02325  	0.53522  	0.52697  	-3.02442  	0.06209  	-0.08582  	-84.56018  	-0.79850  	155.52983  	157.96437  	-21526.54300  	-11422.92976  	0.00484  	0.00002  	0.00420  	0.00445  	0.00644  	0.00000  	0.00000  
107.00384  	29.76291  	49.74680  	49.58539  	36.43927  	-1.18512  	0.02391  	0.53829  	0.53169  	-3.02442  	0.06144  	-0.08567  	-84.43133  	-0.80016  	156.92287  	158.87132  	-21525.41422  	-11423.25290  	0.00485  	0.00003  	0.00420  	0.00446  	0.00646  	0.00000  	0.00000  
108.00713  	29.76388  	49.74946  	49.58700  	36.43172  	-1.18512  	0.02432  	0.53903  	0.53242  	-3.02442  	0.06172  	-0.08574  	-84.32353  	-0.80534  	157.13663  	159.08736  	-21523.95114  	-11423.65060  	0.00485  	0.00003  	0.00420  	0.00447  	0.00646  	0.00000  	0.00000  
109.00847  	29.76547  	49.75076  	49.58827  	36.42471  	-1.18512  	0.02578  	0.53792  	0.53077  	-3.02442  	0.06073  	-0.08567  	-84.21478  	-0.80548  	156.65021  	158.76053  	-21522.74348  	-11423.89113  	0.00485  	0.00003  	0.00419  	0.00449  	0.00645  	0.00000  	0.00000  
