10/18/2024 17:05:58Time	T_hot_in(C)	T_cold_in(C)	T_cold_out(C)	T_hot_out(C)	mdot_cold(kg/s)	ASFASIFUAS(kg/s)	Diferencial_cold(bar)	Diferencial_hot(bar)	mdot_hot(kg/s)	ABS_cold(bar)	ABS_hot(bar)	q_cold(kW)	q_hot(kW)	ASFASYFY	Tau_cold_haste	Re_hot	Re_cold	U_global	PSIG_cold(bar)	R_fouling	PSIG_hot(bar)	PSID_hot(bar)	m_dot_hot	PSID_cold(bar)	m_dot_cold
1.75229  	0.00000  	0.00000  	0.00000  	0.00000  	-1.18512  	-0.20833  	-0.86278  	-2.50000  	-3.02442  	-1.25000  	-0.08628  	-0.00000  	-0.00000  	-737.84722  	-254.63905  	-9234.48090  	-3618.55272  	0.00000  	0.00000  	0.00000  	0.00000  	0.00000  	0.00000  	0.00000  
2.75464  	29.58484  	49.61955  	49.46675  	36.86356  	-1.18512  	0.01968  	0.41602  	0.40752  	-3.02442  	0.06116  	-0.08569  	-92.04897  	-0.75746  	120.27538  	122.78343  	-21580.19655  	-11400.31507  	0.00465  	0.00003  	0.00420  	0.00438  	0.00589  	0.00000  	0.00000  
3.75596  	29.58533  	49.62069  	49.46716  	36.86709  	-1.18512  	0.01968  	0.41507  	0.40357  	-3.02442  	0.06140  	-0.08565  	-92.08747  	-0.76110  	119.10925  	122.50228  	-21581.09116  	-11400.45969  	0.00465  	0.00003  	0.00420  	0.00438  	0.00589  	0.00000  	0.00000  
4.75826  	29.58627  	49.62095  	49.46731  	36.87154  	-1.18512  	0.01892  	0.41159  	0.39819  	-3.02442  	0.06291  	-0.08569  	-92.13179  	-0.76161  	117.52105  	121.47674  	-21582.28852  	-11400.49853  	0.00464  	0.00003  	0.00420  	0.00436  	0.00587  	0.00000  	0.00000  
5.76156  	29.58710  	49.62177  	49.46867  	36.87608  	-1.18512  	0.01763  	0.40832  	0.39868  	-3.02442  	0.06197  	-0.08574  	-92.17869  	-0.75894  	117.66522  	120.51139  	-21583.48409  	-11400.70102  	0.00464  	0.00003  	0.00420  	0.00434  	0.00586  	0.00000  	0.00000  
6.76288  	29.58833  	49.62239  	49.47047  	36.88316  	-1.18512  	0.01803  	0.40558  	0.39428  	-3.02442  	0.06098  	-0.08565  	-92.25267  	-0.75309  	116.36693  	119.70117  	-21585.33431  	-11400.92665  	0.00463  	0.00003  	0.00420  	0.00435  	0.00584  	0.00000  	0.00000  
7.76620  	29.58946  	49.62406  	49.47134  	36.89052  	-1.18512  	0.01767  	0.40124  	0.38679  	-3.02442  	0.06188  	-0.08569  	-92.33152  	-0.75707  	114.15625  	118.42052  	-21587.22495  	-11401.16393  	0.00462  	0.00003  	0.00420  	0.00434  	0.00582  	0.00000  	0.00000  
8.76952  	29.59001  	49.62398  	49.47280  	36.90050  	-1.18512  	0.01912  	0.39750  	0.38339  	-3.02442  	0.06135  	-0.08574  	-92.45071  	-0.74944  	113.15203  	117.31855  	-21589.56671  	-11401.29313  	0.00461  	0.00003  	0.00420  	0.00437  	0.00581  	0.00000  	0.00000  
9.77084  	29.59102  	49.62510  	49.47340  	36.91016  	-1.18512  	0.01930  	0.39951  	0.38908  	-3.02442  	0.06143  	-0.08562  	-92.56021  	-0.75201  	114.83168  	117.91089  	-21591.94321  	-11401.45282  	0.00462  	0.00003  	0.00420  	0.00437  	0.00582  	0.00000  	0.00000  
10.77418  	29.59241  	49.62611  	49.47535  	36.92010  	-1.18512  	0.01794  	0.40506  	0.39341  	-3.02442  	0.06366  	-0.08571  	-92.66819  	-0.74737  	116.10939  	119.54749  	-21594.46538  	-11401.72874  	0.00463  	0.00003  	0.00420  	0.00434  	0.00584  	0.00000  	0.00000  
11.77747  	29.59406  	49.62711  	49.47605  	36.93173  	-1.18512  	0.01822  	0.40926  	0.39478  	-3.02442  	0.06268  	-0.08561  	-92.79449  	-0.74879  	116.51391  	120.78985  	-21597.42096  	-11401.88774  	0.00463  	0.00003  	0.00420  	0.00435  	0.00586  	0.00000  	0.00000  
12.77882  	29.59583  	49.62804  	49.47612  	36.94386  	-1.18512  	0.01959  	0.41290  	0.39786  	-3.02442  	0.06146  	-0.08564  	-92.92548  	-0.75307  	117.42478  	121.86188  	-21600.51510  	-11401.98131  	0.00464  	0.00003  	0.00420  	0.00438  	0.00588  	0.00000  	0.00000  
13.78214  	29.59807  	49.62898  	49.47665  	36.95298  	-1.18512  	0.01981  	0.41497  	0.40349  	-3.02442  	0.06256  	-0.08565  	-93.01255  	-0.75512  	119.08525  	122.47418  	-21603.04476  	-11402.11733  	0.00465  	0.00003  	0.00420  	0.00438  	0.00589  	0.00000  	0.00000  
14.78545  	29.60077  	49.62972  	49.47878  	36.96106  	-1.18512  	0.01915  	0.41995  	0.40868  	-3.02442  	0.06171  	-0.08561  	-93.08046  	-0.74822  	120.61690  	123.94317  	-21605.44480  	-11402.38543  	0.00465  	0.00003  	0.00420  	0.00437  	0.00591  	0.00000  	0.00000  
15.78578  	29.60258  	49.63129  	49.47926  	36.96761  	-1.18512  	0.01984  	0.42449  	0.41158  	-3.02442  	0.06122  	-0.08563  	-93.14054  	-0.75364  	121.47331  	125.28438  	-21607.30436  	-11402.57702  	0.00466  	0.00003  	0.00420  	0.00438  	0.00593  	0.00000  	0.00000  
16.78906  	29.60536  	49.63300  	49.48139  	36.97218  	-1.18512  	0.01982  	0.43009  	0.41998  	-3.02442  	0.06184  	-0.08572  	-93.16308  	-0.75155  	123.95160  	126.93755  	-21608.94076  	-11402.93483  	0.00467  	0.00003  	0.00420  	0.00438  	0.00596  	0.00000  	0.00000  
17.79238  	29.60829  	49.63333  	49.48161  	36.97590  	-1.18512  	0.01947  	0.43359  	0.42104  	-3.02442  	0.06144  	-0.08567  	-93.17304  	-0.75209  	124.26574  	127.96923  	-21610.42248  	-11402.98569  	0.00467  	0.00003  	0.00420  	0.00437  	0.00597  	0.00000  	0.00000  
18.79570  	29.61189  	49.63419  	49.48302  	36.97790  	-1.18512  	0.01938  	0.43758  	0.42594  	-3.02442  	0.06050  	-0.08561  	-93.15284  	-0.74940  	125.71135  	129.14587  	-21611.66765  	-11403.19798  	0.00468  	0.00003  	0.00419  	0.00437  	0.00599  	0.00000  	0.00000  
19.79705  	29.61386  	49.63611  	49.48490  	36.97690  	-1.18512  	0.02027  	0.44077  	0.43004  	-3.02442  	0.06269  	-0.08572  	-93.11538  	-0.74956  	126.92261  	130.08956  	-21611.88466  	-11403.55188  	0.00469  	0.00003  	0.00420  	0.00439  	0.00601  	0.00000  	0.00000  
20.80033  	29.61737  	49.63779  	49.48622  	36.97474  	-1.18512  	0.02041  	0.44376  	0.43108  	-3.02442  	0.06111  	-0.08571  	-93.04363  	-0.75137  	127.22930  	130.97007  	-21612.18668  	-11403.83186  	0.00469  	0.00003  	0.00420  	0.00439  	0.00602  	0.00000  	0.00000  
21.80266  	29.61956  	49.63914  	49.48579  	36.97040  	-1.18512  	0.02028  	0.44598  	0.42986  	-3.02442  	0.06161  	-0.08582  	-92.96106  	-0.76020  	126.86928  	131.62511  	-21611.70586  	-11403.91800  	0.00469  	0.00002  	0.00420  	0.00439  	0.00603  	0.00000  	0.00000  
22.80400  	29.62226  	49.63950  	49.48612  	36.96507  	-1.18512  	0.02087  	0.44827  	0.43577  	-3.02442  	0.06195  	-0.08567  	-92.85948  	-0.76032  	128.61323  	132.30332  	-21611.12258  	-11403.98182  	0.00470  	0.00003  	0.00420  	0.00440  	0.00604  	0.00000  	0.00000  
23.80732  	29.62547  	49.64060  	49.48823  	36.95776  	-1.18512  	0.01949  	0.45160  	0.44309  	-3.02442  	0.06172  	-0.08567  	-92.72636  	-0.75532  	130.77433  	133.28486  	-21610.20800  	-11404.28140  	0.00471  	0.00003  	0.00420  	0.00437  	0.00606  	0.00000  	0.00000  
24.81064  	29.62795  	49.64291  	49.48970  	36.95027  	-1.18512  	0.02109  	0.45342  	0.44333  	-3.02442  	0.06253  	-0.08572  	-92.60031  	-0.75948  	130.84249  	133.82303  	-21609.09252  	-11404.63385  	0.00471  	0.00003  	0.00420  	0.00440  	0.00606  	0.00000  	0.00000  
25.81196  	29.62956  	49.64394  	49.49060  	36.94261  	-1.18512  	0.02073  	0.45288  	0.44271  	-3.02442  	0.06464  	-0.08568  	-92.48306  	-0.76013  	130.65959  	133.66275  	-21607.74644  	-11404.81482  	0.00471  	0.00003  	0.00421  	0.00440  	0.00606  	0.00000  	0.00000  
26.81524  	29.63160  	49.64499  	49.49172  	36.93382  	-1.18512  	0.01985  	0.44958  	0.44182  	-3.02442  	0.05978  	-0.08567  	-92.34624  	-0.75976  	130.39879  	132.68754  	-21606.24333  	-11405.01605  	0.00471  	0.00003  	0.00419  	0.00438  	0.00605  	0.00000  	0.00000  
27.81759  	29.63295  	49.64734  	49.49219  	36.92441  	-1.18512  	0.02110  	0.44806  	0.43714  	-3.02442  	0.06261  	-0.08570  	-92.21001  	-0.76910  	129.01701  	132.23847  	-21604.44939  	-11405.27997  	0.00470  	0.00003  	0.00420  	0.00441  	0.00604  	0.00000  	0.00000  
28.81891  	29.63427  	49.64839  	49.49394  	36.91542  	-1.18512  	0.02006  	0.44436  	0.43638  	-3.02442  	0.06164  	-0.08562  	-92.07963  	-0.76565  	128.79229  	131.14667  	-21602.74239  	-11405.54014  	0.00470  	0.00003  	0.00420  	0.00439  	0.00602  	0.00000  	0.00000  
29.82223  	29.63503  	49.64971  	49.49536  	36.90811  	-1.18512  	0.02094  	0.44230  	0.42937  	-3.02442  	0.06270  	-0.08574  	-91.97769  	-0.76513  	126.72422  	130.54043  	-21601.28327  	-11405.79535  	0.00469  	0.00003  	0.00420  	0.00440  	0.00601  	0.00000  	0.00000  
30.82452  	29.63673  	49.65074  	49.49616  	36.90070  	-1.18512  	0.02133  	0.43987  	0.42799  	-3.02442  	0.06153  	-0.08578  	-91.86236  	-0.76625  	126.31507  	129.82324  	-21600.01187  	-11405.96637  	0.00468  	0.00002  	0.00420  	0.00441  	0.00600  	0.00000  	0.00000  
31.82584  	29.63719  	49.65237  	49.49826  	36.89468  	-1.18512  	0.02070  	0.43703  	0.42283  	-3.02442  	0.06241  	-0.08564  	-91.78049  	-0.76391  	124.79297  	128.98422  	-21598.77378  	-11406.31455  	0.00468  	0.00003  	0.00420  	0.00440  	0.00599  	0.00000  	0.00000  
32.82916  	29.63751  	49.65335  	49.49890  	36.88988  	-1.18512  	0.02013  	0.43256  	0.42050  	-3.02442  	0.05914  	-0.08563  	-91.71577  	-0.76563  	124.10615  	127.66488  	-21597.77621  	-11406.46553  	0.00467  	0.00003  	0.00419  	0.00439  	0.00597  	0.00000  	0.00000  
33.83247  	29.63786  	49.65459  	49.50115  	36.88761  	-1.18512  	0.01958  	0.43062  	0.42058  	-3.02442  	0.06196  	-0.08574  	-91.68264  	-0.76065  	124.12877  	127.09413  	-21597.34909  	-11406.79136  	0.00467  	0.00003  	0.00420  	0.00438  	0.00596  	0.00000  	0.00000  
34.83379  	29.63853  	49.65588  	49.50204  	36.88540  	-1.18512  	0.02024  	0.42729  	0.41570  	-3.02442  	0.06279  	-0.08568  	-91.64623  	-0.76263  	122.69014  	126.10925  	-21597.00587  	-11406.99431  	0.00467  	0.00003  	0.00420  	0.00439  	0.00594  	0.00000  	0.00000  
35.83711  	29.63911  	49.65747  	49.50323  	36.88458  	-1.18512  	0.02051  	0.42497  	0.40964  	-3.02442  	0.06056  	-0.08570  	-91.62856  	-0.76461  	120.90206  	125.42399  	-21596.95418  	-11407.25361  	0.00466  	0.00003  	0.00419  	0.00439  	0.00593  	0.00000  	0.00000  
36.84045  	29.63970  	49.65930  	49.50432  	36.88544  	-1.18512  	0.01891  	0.42109  	0.41035  	-3.02442  	0.06179  	-0.08576  	-91.63181  	-0.76826  	121.10932  	124.28045  	-21597.27648  	-11407.52571  	0.00466  	0.00002  	0.00420  	0.00436  	0.00592  	0.00000  	0.00000  
37.84177  	29.64006  	49.66062  	49.50554  	36.88829  	-1.18512  	0.01882  	0.41873  	0.40574  	-3.02442  	0.06213  	-0.08566  	-91.66332  	-0.76875  	119.75053  	123.58418  	-21597.98983  	-11407.76252  	0.00465  	0.00003  	0.00420  	0.00436  	0.00590  	0.00000  	0.00000  
38.84407  	29.64057  	49.66254  	49.50638  	36.89167  	-1.18512  	0.01956  	0.41351  	0.40631  	-3.02442  	0.06272  	-0.08567  	-91.69962  	-0.77415  	119.91642  	122.04142  	-21598.85615  	-11408.02069  	0.00465  	0.00003  	0.00420  	0.00438  	0.00588  	0.00000  	0.00000  
39.84741  	29.64079  	49.66403  	49.50878  	36.89703  	-1.18512  	0.01871  	0.41191  	0.40132  	-3.02442  	0.06209  	-0.08571  	-91.76467  	-0.76961  	118.44585  	121.57115  	-21600.10066  	-11408.38289  	0.00464  	0.00003  	0.00420  	0.00436  	0.00587  	0.00000  	0.00000  
40.84873  	29.64239  	49.66471  	49.51110  	36.90347  	-1.18512  	0.01986  	0.40826  	0.39479  	-3.02442  	0.06015  	-0.08570  	-91.82588  	-0.76147  	116.51911  	120.49470  	-21601.88834  	-11408.66274  	0.00463  	0.00003  	0.00419  	0.00438  	0.00586  	0.00000  	0.00000  
41.85002  	29.64226  	49.66603  	49.51326  	36.91140  	-1.18512  	0.02066  	0.40551  	0.39227  	-3.02442  	0.06363  	-0.08572  	-91.92788  	-0.75728  	115.77300  	119.68247  	-21603.62478  	-11408.98815  	0.00463  	0.00003  	0.00420  	0.00440  	0.00584  	0.00000  	0.00000  
42.85334  	29.64262  	49.66856  	49.51443  	36.91938  	-1.18512  	0.01811  	0.40209  	0.38842  	-3.02442  	0.06234  	-0.08566  	-92.02416  	-0.76409  	114.63801  	118.67093  	-21605.48056  	-11409.33297  	0.00462  	0.00003  	0.00420  	0.00435  	0.00583  	0.00000  	0.00000  
43.85666  	29.64365  	49.66958  	49.51661  	36.92968  	-1.18512  	0.01798  	0.40290  	0.39198  	-3.02442  	0.06161  	-0.08561  	-92.14131  	-0.75828  	115.68787  	118.91179  	-21608.00430  	-11409.63208  	0.00463  	0.00003  	0.00420  	0.00435  	0.00583  	0.00000  	0.00000  
44.85800  	29.64463  	49.67082  	49.51865  	36.94013  	-1.18512  	0.01929  	0.40914  	0.39378  	-3.02442  	0.06195  	-0.08577  	-92.26116  	-0.75434  	116.21967  	120.75253  	-21610.54940  	-11409.93706  	0.00463  	0.00002  	0.00420  	0.00437  	0.00586  	0.00000  	0.00000  
45.86130  	29.64587  	49.67346  	49.51950  	36.95054  	-1.18512  	0.01802  	0.41151  	0.39677  	-3.02442  	0.06155  	-0.08569  	-92.37716  	-0.76317  	117.10137  	121.45172  	-21613.14332  	-11410.26283  	0.00463  	0.00003  	0.00420  	0.00435  	0.00587  	0.00000  	0.00000  
46.86461  	29.64702  	49.67503  	49.52281  	36.96073  	-1.18512  	0.02012  	0.41805  	0.40301  	-3.02442  	0.06120  	-0.08570  	-92.49147  	-0.75457  	118.94447  	123.38409  	-21615.66646  	-11410.71777  	0.00464  	0.00003  	0.00420  	0.00439  	0.00590  	0.00000  	0.00000  
47.86593  	29.64939  	49.67707  	49.52403  	36.97076  	-1.18512  	0.01995  	0.42129  	0.40842  	-3.02442  	0.06204  	-0.08571  	-92.58837  	-0.75867  	120.54155  	124.33879  	-21618.42820  	-11411.02216  	0.00465  	0.00003  	0.00420  	0.00438  	0.00592  	0.00000  	0.00000  
48.86925  	29.65142  	49.67741  	49.52451  	36.97882  	-1.18512  	0.02034  	0.42548  	0.41428  	-3.02442  	0.06193  	-0.08572  	-92.66461  	-0.75794  	122.27158  	125.57523  	-21620.67424  	-11411.09821  	0.00466  	0.00003  	0.00420  	0.00439  	0.00594  	0.00000  	0.00000  
49.87158  	29.65416  	49.67951  	49.52706  	36.98509  	-1.18512  	0.02055  	0.42881  	0.41917  	-3.02442  	0.06287  	-0.08568  	-92.70923  	-0.75569  	123.71393  	126.55739  	-21622.67970  	-11411.53215  	0.00467  	0.00003  	0.00420  	0.00439  	0.00595  	0.00000  	0.00000  
50.87189  	29.65653  	49.68109  	49.52855  	36.98906  	-1.18512  	0.02130  	0.43320  	0.42219  	-3.02442  	0.06282  	-0.08575  	-92.72946  	-0.75619  	124.60402  	127.85372  	-21624.09530  	-11411.81932  	0.00468  	0.00002  	0.00420  	0.00441  	0.00597  	0.00000  	0.00000  
51.87421  	29.65903  	49.68367  	49.52964  	36.99150  	-1.18512  	0.02080  	0.43632  	0.42561  	-3.02442  	0.06257  	-0.08565  	-92.72864  	-0.76353  	125.61286  	128.77517  	-21625.19273  	-11412.16151  	0.00468  	0.00003  	0.00420  	0.00440  	0.00599  	0.00000  	0.00000  
52.87755  	29.66204  	49.68502  	49.53183  	36.99170  	-1.18512  	0.02048  	0.44012  	0.42963  	-3.02442  	0.06250  	-0.08577  	-92.69312  	-0.75936  	126.80132  	129.89510  	-21625.90936  	-11412.49152  	0.00469  	0.00002  	0.00420  	0.00439  	0.00600  	0.00000  	0.00000  
53.87888  	29.66371  	49.68631  	49.53333  	36.99100  	-1.18512  	0.02015  	0.44275  	0.43177  	-3.02442  	0.06187  	-0.08576  	-92.66320  	-0.75836  	127.43200  	130.67252  	-21626.12543  	-11412.75134  	0.00469  	0.00002  	0.00420  	0.00439  	0.00602  	0.00000  	0.00000  
54.88219  	29.66519  	49.68811  	49.53499  	36.98859  	-1.18512  	0.02048  	0.44628  	0.43338  	-3.02442  	0.06152  	-0.08566  	-92.61403  	-0.75900  	127.90731  	131.71377  	-21625.91830  	-11413.07443  	0.00469  	0.00003  	0.00420  	0.00439  	0.00603  	0.00000  	0.00000  
55.88448  	29.66770  	49.69103  	49.53596  	36.98477  	-1.18512  	0.02077  	0.44749  	0.43321  	-3.02442  	0.06109  	-0.08574  	-92.53400  	-0.76875  	127.85661  	132.07231  	-21625.62565  	-11413.43756  	0.00469  	0.00003  	0.00420  	0.00440  	0.00604  	0.00000  	0.00000  
56.88580  	29.67005  	49.69236  	49.53776  	36.97895  	-1.18512  	0.01977  	0.45053  	0.43985  	-3.02442  	0.06279  	-0.08564  	-92.43068  	-0.76635  	129.81605  	132.96800  	-21624.85329  	-11413.72926  	0.00470  	0.00003  	0.00420  	0.00438  	0.00605  	0.00000  	0.00000  
57.88813  	29.67182  	49.69431  	49.53879  	36.97283  	-1.18512  	0.02115  	0.45226  	0.44072  	-3.02442  	0.06206  	-0.08568  	-92.33076  	-0.77095  	130.07433  	133.48079  	-21623.88415  	-11414.00719  	0.00471  	0.00003  	0.00420  	0.00441  	0.00606  	0.00000  	0.00000  
58.89144  	29.67372  	49.69481  	49.53990  	36.96567  	-1.18512  	0.02052  	0.45115  	0.44038  	-3.02442  	0.06217  	-0.08570  	-92.21625  	-0.76792  	129.97228  	133.15289  	-21622.71386  	-11414.15814  	0.00470  	0.00003  	0.00420  	0.00439  	0.00605  	0.00000  	0.00000  
59.89276  	29.67545  	49.69775  	49.54154  	36.95717  	-1.18512  	0.02060  	0.44936  	0.43870  	-3.02442  	0.06190  	-0.08572  	-92.08689  	-0.77435  	129.47789  	132.62244  	-21621.20646  	-11414.58569  	0.00470  	0.00003  	0.00420  	0.00440  	0.00605  	0.00000  	0.00000  
60.89508  	29.67748  	49.69881  	49.54402  	36.94982  	-1.18512  	0.02091  	0.44687  	0.43306  	-3.02442  	0.06317  	-0.08571  	-91.96817  	-0.76732  	127.81156  	131.88955  	-21620.02108  	-11414.91549  	0.00469  	0.00003  	0.00420  	0.00440  	0.00603  	0.00000  	0.00000  
61.89840  	29.67702  	49.70104  	49.54515  	36.94221  	-1.18512  	0.02065  	0.44339  	0.42883  	-3.02442  	0.06136  	-0.08572  	-91.87790  	-0.77280  	126.56346  	130.86218  	-21618.22326  	-11415.22860  	0.00469  	0.00003  	0.00420  	0.00440  	0.00602  	0.00000  	0.00000  
62.89974  	29.67826  	49.70211  	49.54788  	36.93545  	-1.18512  	0.02141  	0.43804  	0.42716  	-3.02442  	0.06219  	-0.08567  	-91.77661  	-0.76452  	126.07196  	129.28397  	-21616.99488  	-11415.58317  	0.00468  	0.00003  	0.00420  	0.00441  	0.00599  	0.00000  	0.00000  
63.90203  	29.67810  	49.70467  	49.54916  	36.92868  	-1.18512  	0.02103  	0.43631  	0.42399  	-3.02442  	0.06269  	-0.08567  	-91.69302  	-0.77087  	125.13493  	128.77078  	-21615.45089  	-11415.94198  	0.00468  	0.00003  	0.00420  	0.00440  	0.00599  	0.00000  	0.00000  
64.90537  	29.67841  	49.70603  	49.55081  	36.92477  	-1.18512  	0.02019  	0.43257  	0.41920  	-3.02442  	0.06259  	-0.08562  	-91.63966  	-0.76943  	123.72162  	127.66830  	-21614.65012  	-11416.22211  	0.00467  	0.00003  	0.00420  	0.00439  	0.00597  	0.00000  	0.00000  
65.90867  	29.67859  	49.70829  	49.55310  	36.92118  	-1.18512  	0.02014  	0.43023  	0.41810  	-3.02442  	0.06087  	-0.08565  	-91.59207  	-0.76932  	123.39727  	126.97674  	-21613.89114  	-11416.64697  	0.00467  	0.00003  	0.00419  	0.00439  	0.00596  	0.00000  	0.00000  
66.91002  	29.67851  	49.71025  	49.55369  	36.92047  	-1.18512  	0.02015  	0.42593  	0.41864  	-3.02442  	0.06164  	-0.08565  	-91.58405  	-0.77607  	123.55744  	125.70946  	-21613.71413  	-11416.88478  	0.00467  	0.00003  	0.00420  	0.00439  	0.00594  	0.00000  	0.00000  
67.91330  	29.67764  	49.71078  	49.55593  	36.92037  	-1.18512  	0.01870  	0.42213  	0.41143  	-3.02442  	0.06106  	-0.08569  	-91.59378  	-0.76762  	121.43036  	124.58758  	-21613.49748  	-11417.14231  	0.00466  	0.00003  	0.00420  	0.00436  	0.00592  	0.00000  	0.00000  
68.91662  	29.67838  	49.71215  	49.55725  	36.92111  	-1.18512  	0.01965  	0.42034  	0.40842  	-3.02442  	0.06212  	-0.08571  	-91.59380  	-0.76789  	120.54169  	124.05772  	-21613.82963  	-11417.39438  	0.00465  	0.00003  	0.00420  	0.00438  	0.00591  	0.00000  	0.00000  
69.91797  	29.67795  	49.71469  	49.55988  	36.92388  	-1.18512  	0.01848  	0.41696  	0.40514  	-3.02442  	0.06252  	-0.08568  	-91.63421  	-0.76745  	119.57113  	123.06218  	-21614.34971  	-11417.87612  	0.00465  	0.00003  	0.00420  	0.00435  	0.00590  	0.00000  	0.00000  
70.92029  	29.67845  	49.71601  	49.56143  	36.92759  	-1.18512  	0.01919  	0.41433  	0.40062  	-3.02442  	0.06179  	-0.08571  	-91.67477  	-0.76627  	118.23983  	122.28379  	-21615.28701  	-11418.14368  	0.00464  	0.00003  	0.00420  	0.00437  	0.00588  	0.00000  	0.00000  
71.92358  	29.67890  	49.71882  	49.56380  	36.93452  	-1.18512  	0.01935  	0.41031  	0.39958  	-3.02442  	0.06155  	-0.08566  	-91.75690  	-0.76845  	117.93199  	121.09940  	-21616.92996  	-11418.62820  	0.00464  	0.00003  	0.00420  	0.00437  	0.00587  	0.00000  	0.00000  
72.92490  	29.67947  	49.72008  	49.56529  	36.94046  	-1.18512  	0.02059  	0.40778  	0.39390  	-3.02442  	0.06157  	-0.08570  	-91.82474  	-0.76734  	116.25508  	120.35166  	-21618.38166  	-11418.88384  	0.00463  	0.00003  	0.00420  	0.00440  	0.00585  	0.00000  	0.00000  
73.92821  	29.68018  	49.72144  	49.56745  	36.94852  	-1.18512  	0.01987  	0.40461  	0.39122  	-3.02442  	0.06173  	-0.08563  	-91.91778  	-0.76335  	115.46521  	119.41503  	-21620.33256  	-11419.21320  	0.00463  	0.00003  	0.00420  	0.00438  	0.00584  	0.00000  	0.00000  
74.93153  	29.67921  	49.72327  	49.56917  	36.95721  	-1.18512  	0.01929  	0.40192  	0.38791  	-3.02442  	0.06144  	-0.08569  	-92.03989  	-0.76390  	114.48741  	118.62364  	-21622.05035  	-11419.54281  	0.00462  	0.00003  	0.00420  	0.00437  	0.00583  	0.00000  	0.00000  
75.93285  	29.68038  	49.72522  	49.57036  	36.96827  	-1.18512  	0.01921  	0.40274  	0.38994  	-3.02442  	0.06126  	-0.08560  	-92.16492  	-0.76766  	115.08757  	118.86440  	-21624.77578  	-11419.83589  	0.00462  	0.00003  	0.00420  	0.00437  	0.00583  	0.00000  	0.00000  
76.93619  	29.68032  	49.72753  	49.57295  	36.97768  	-1.18512  	0.01914  	0.40874  	0.39474  	-3.02442  	0.06241  	-0.08567  	-92.28463  	-0.76625  	116.50432  	120.63509  	-21626.85726  	-11420.29398  	0.00463  	0.00003  	0.00420  	0.00437  	0.00586  	0.00000  	0.00000  
77.93951  	29.68153  	49.72852  	49.57535  	36.98842  	-1.18512  	0.02076  	0.41303  	0.39935  	-3.02442  	0.06113  	-0.08572  	-92.40515  	-0.75926  	117.86256  	121.90017  	-21629.51799  	-11420.61045  	0.00464  	0.00003  	0.00420  	0.00440  	0.00588  	0.00000  	0.00000  
78.94081  	29.68213  	49.73059  	49.57698  	36.99994  	-1.18512  	0.01979  	0.41744  	0.40625  	-3.02442  	0.06100  	-0.08565  	-92.54334  	-0.76149  	119.90105  	123.20382  	-21632.21611  	-11420.95579  	0.00465  	0.00003  	0.00420  	0.00438  	0.00590  	0.00000  	0.00000  
79.94412  	29.68438  	49.73252  	49.57960  	37.01015  	-1.18512  	0.01981  	0.42189  	0.41218  	-3.02442  	0.06250  	-0.08572  	-92.64395  	-0.75805  	121.64996  	124.51558  	-21634.99069  	-11421.37908  	0.00466  	0.00003  	0.00420  	0.00438  	0.00592  	0.00000  	0.00000  
80.94744  	29.68692  	49.73392  	49.58137  	37.01745  	-1.18512  	0.01995  	0.42705  	0.41398  	-3.02442  	0.06073  	-0.08573  	-92.70413  	-0.75622  	122.18232  	126.03854  	-21637.18248  	-11421.67493  	0.00466  	0.00003  	0.00419  	0.00438  	0.00594  	0.00000  	0.00000  
81.94876  	29.68816  	49.73600  	49.58299  	37.02343  	-1.18512  	0.02033  	0.43026  	0.41430  	-3.02442  	0.06066  	-0.08569  	-92.76405  	-0.75848  	122.27589  	126.98755  	-21638.79189  	-11422.02063  	0.00466  	0.00003  	0.00419  	0.00439  	0.00596  	0.00000  	0.00000  
82.95210  	29.69069  	49.73863  	49.58503  	37.02737  	-1.18512  	0.01928  	0.43381  	0.41974  	-3.02442  	0.06081  	-0.08566  	-92.78195  	-0.76139  	123.88091  	128.03312  	-21640.23210  	-11422.45688  	0.00467  	0.00003  	0.00419  	0.00437  	0.00597  	0.00000  	0.00000  
83.95539  	29.69279  	49.74046  	49.58613  	37.02954  	-1.18512  	0.01973  	0.43715  	0.42455  	-3.02442  	0.06200  	-0.08573  	-92.78292  	-0.76500  	125.30079  	129.01996  	-21641.18322  	-11422.73003  	0.00468  	0.00003  	0.00420  	0.00438  	0.00599  	0.00000  	0.00000  
84.95871  	29.69495  	49.74177  	49.58899  	37.03026  	-1.18512  	0.01976  	0.44069  	0.43304  	-3.02442  	0.06194  	-0.08575  	-92.76461  	-0.75736  	127.80812  	130.06560  	-21641.82293  	-11423.11982  	0.00469  	0.00002  	0.00420  	0.00438  	0.00601  	0.00000  	0.00000  
85.96003  	29.69673  	49.74442  	49.58976  	37.02837  	-1.18512  	0.02111  	0.44371  	0.43198  	-3.02442  	0.06095  	-0.08568  	-92.71816  	-0.76667  	127.49519  	130.95736  	-21641.80054  	-11423.43819  	0.00469  	0.00003  	0.00420  	0.00441  	0.00602  	0.00000  	0.00000  
86.96334  	29.69937  	49.74721  	49.59134  	37.02639  	-1.18512  	0.02187  	0.44622  	0.43313  	-3.02442  	0.06068  	-0.08562  	-92.65975  	-0.77266  	127.83249  	131.69660  	-21641.94531  	-11423.84607  	0.00469  	0.00003  	0.00419  	0.00442  	0.00603  	0.00000  	0.00000  
87.96666  	29.70108  	49.74743  	49.59429  	37.02180  	-1.18512  	0.02173  	0.44823  	0.43509  	-3.02442  	0.06250  	-0.08575  	-92.58013  	-0.75915  	128.41316  	132.28960  	-21641.30431  	-11424.14168  	0.00470  	0.00002  	0.00420  	0.00442  	0.00604  	0.00000  	0.00000  
88.96798  	29.70341  	49.75007  	49.59478  	37.01685  	-1.18512  	0.02087  	0.45070  	0.43828  	-3.02442  	0.06114  	-0.08567  	-92.48811  	-0.76981  	129.35271  	133.01850  	-21640.72158  	-11424.43437  	0.00470  	0.00003  	0.00420  	0.00440  	0.00605  	0.00000  	0.00000  
89.97133  	29.70490  	49.75239  	49.59529  	37.00965  	-1.18512  	0.02118  	0.45156  	0.43923  	-3.02442  	0.06276  	-0.08574  	-92.37816  	-0.77874  	129.63405  	133.27405  	-21639.44894  	-11424.69809  	0.00470  	0.00003  	0.00420  	0.00441  	0.00606  	0.00000  	0.00000  
90.97461  	29.70547  	49.75311  	49.59839  	37.00181  	-1.18512  	0.02051  	0.45030  	0.44478  	-3.02442  	0.06320  	-0.08563  	-92.27186  	-0.76693  	131.27293  	132.90114  	-21637.83063  	-11425.05440  	0.00471  	0.00003  	0.00420  	0.00439  	0.00605  	0.00000  	0.00000  
91.97594  	29.70663  	49.75637  	49.60007  	36.99356  	-1.18512  	0.02063  	0.44958  	0.43622  	-3.02442  	0.06314  	-0.08570  	-92.15270  	-0.77478  	128.74675  	132.68797  	-21636.25258  	-11425.51550  	0.00470  	0.00003  	0.00420  	0.00440  	0.00605  	0.00000  	0.00000  
92.97925  	29.70852  	49.75770  	49.60071  	36.98663  	-1.18512  	0.02090  	0.44676  	0.43528  	-3.02442  	0.06196  	-0.08571  	-92.04126  	-0.77824  	128.46736  	131.85606  	-21635.12813  	-11425.69951  	0.00470  	0.00003  	0.00420  	0.00440  	0.00603  	0.00000  	0.00000  
93.98257  	29.70878  	49.75901  	49.60254  	36.97908  	-1.18512  	0.02031  	0.44321  	0.43183  	-3.02442  	0.06122  	-0.08572  	-91.94242  	-0.77561  	127.45116  	130.80726  	-21633.50499  	-11425.99248  	0.00469  	0.00003  	0.00420  	0.00439  	0.00602  	0.00000  	0.00000  
94.98392  	29.70852  	49.76137  	49.60504  	36.97066  	-1.18512  	0.02029  	0.44041  	0.42414  	-3.02442  	0.06209  	-0.08567  	-91.83921  	-0.77492  	125.17892  	129.98352  	-21631.57281  	-11426.44587  	0.00468  	0.00003  	0.00420  	0.00439  	0.00600  	0.00000  	0.00000  
95.98720  	29.70947  	49.76275  	49.60689  	36.96622  	-1.18512  	0.02165  	0.43807  	0.42712  	-3.02442  	0.06326  	-0.08571  	-91.77116  	-0.77260  	126.05954  	129.29059  	-21630.79718  	-11426.74764  	0.00468  	0.00003  	0.00420  	0.00442  	0.00599  	0.00000  	0.00000  
96.99052  	29.70899  	49.76444  	49.60838  	36.96088  	-1.18512  	0.02034  	0.43583  	0.42940  	-3.02442  	0.06347  	-0.08574  	-91.70965  	-0.77358  	126.73363  	128.63045  	-21629.50080  	-11427.04410  	0.00469  	0.00003  	0.00420  	0.00439  	0.00598  	0.00000  	0.00000  
97.99184  	29.70884  	49.76635  	49.60966  	36.95771  	-1.18512  	0.01882  	0.43188  	0.42212  	-3.02442  	0.06292  	-0.08571  	-91.67153  	-0.77674  	124.58489  	127.46413  	-21628.76064  	-11427.34095  	0.00468  	0.00003  	0.00420  	0.00436  	0.00596  	0.00000  	0.00000  
98.99516  	29.70962  	49.76849  	49.61122  	36.95506  	-1.18512  	0.02074  	0.42893  	0.41578  	-3.02442  	0.06236  	-0.08576  	-91.62804  	-0.77958  	122.71245  	126.59280  	-21628.34361  	-11427.68731  	0.00467  	0.00002  	0.00420  	0.00440  	0.00595  	0.00000  	0.00000  
99.99750  	29.70934  	49.77037  	49.61363  	36.95456  	-1.18512  	0.02134  	0.42646  	0.41343  	-3.02442  	0.06270  	-0.08570  	-91.62524  	-0.77699  	122.02026  	125.86415  	-21628.17196  	-11428.08801  	0.00466  	0.00003  	0.00420  	0.00441  	0.00594  	0.00000  	0.00000  
100.99783  	29.70891  	49.77158  	49.61567  	36.95447  	-1.18512  	0.01989  	0.42242  	0.41145  	-3.02442  	0.06021  	-0.08570  	-91.62969  	-0.77288  	121.43411  	124.67145  	-21628.05486  	-11428.39045  	0.00466  	0.00003  	0.00419  	0.00438  	0.00592  	0.00000  	0.00000  
102.00112  	29.70979  	49.77353  	49.61784  	36.95667  	-1.18512  	0.01993  	0.42004  	0.40732  	-3.02442  	0.06295  	-0.08566  	-91.64624  	-0.77178  	120.21663  	123.97070  	-21628.74015  	-11428.77435  	0.00465  	0.00003  	0.00420  	0.00438  	0.00591  	0.00000  	0.00000  
103.00443  	29.70954  	49.77466  	49.61957  	36.96020  	-1.18512  	0.02003  	0.41574  	0.40381  	-3.02442  	0.06228  	-0.08561  	-91.69416  	-0.76880  	119.18061  	122.70205  	-21629.47158  	-11429.04171  	0.00465  	0.00003  	0.00420  	0.00438  	0.00589  	0.00000  	0.00000  
104.00575  	29.70881  	49.77670  	49.62238  	36.96576  	-1.18512  	0.01944  	0.41221  	0.40451  	-3.02442  	0.06227  	-0.08569  	-91.77365  	-0.76501  	119.38668  	121.65973  	-21630.54634  	-11429.49496  	0.00465  	0.00003  	0.00420  	0.00437  	0.00587  	0.00000  	0.00000  
105.00910  	29.70952  	49.77832  	49.62427  	36.97079  	-1.18512  	0.01943  	0.40997  	0.39829  	-3.02442  	0.06250  	-0.08575  	-91.82826  	-0.76369  	117.55068  	120.99774  	-21631.82573  	-11429.82245  	0.00464  	0.00002  	0.00420  	0.00437  	0.00586  	0.00000  	0.00000  
106.01239  	29.70963  	49.77982  	49.62486  	36.97664  	-1.18512  	0.01950  	0.40749  	0.39678  	-3.02442  	0.06265  	-0.08567  	-91.90090  	-0.76813  	117.10597  	120.26678  	-21633.15269  	-11430.01750  	0.00463  	0.00003  	0.00420  	0.00437  	0.00585  	0.00000  	0.00000  
107.01570  	29.70924  	49.78195  	49.62766  	36.98588  	-1.18512  	0.01858  	0.40396  	0.39389  	-3.02442  	0.06421  	-0.08578  	-92.02264  	-0.76480  	116.25172  	119.22477  	-21635.12400  	-11430.47768  	0.00463  	0.00002  	0.00421  	0.00436  	0.00584  	0.00000  	0.00000  
108.01702  	29.70858  	49.78446  	49.62943  	36.99585  	-1.18512  	0.01896  	0.40200  	0.38835  	-3.02442  	0.06261  	-0.08567  	-92.15705  	-0.76852  	114.61632  	118.64618  	-21637.19563  	-11430.87667  	0.00462  	0.00003  	0.00420  	0.00436  	0.00583  	0.00000  	0.00000  
109.02034  	29.70876  	49.78569  	49.63110  	37.00540  	-1.18512  	0.01916  	0.40611  	0.39441  	-3.02442  	0.06358  	-0.08567  	-92.27550  	-0.76633  	116.40497  	119.85919  	-21639.36414  	-11431.14820  	0.00463  	0.00003  	0.00420  	0.00437  	0.00585  	0.00000  	0.00000  
110.02366  	29.70929  	49.78733  	49.63221  	37.01558  	-1.18512  	0.01945  	0.41038  	0.40057  	-3.02442  	0.06244  	-0.08569  	-92.39763  	-0.76893  	118.22388  	121.11879  	-21641.74726  	-11431.40462  	0.00464  	0.00003  	0.00420  	0.00437  	0.00587  	0.00000  	0.00000  
