10/18/2024 16:56:34Time	T_hot_in(C)	T_cold_in(C)	T_cold_out(C)	T_hot_out(C)	mdot_cold(kg/s)	ASFASIFUAS(kg/s)	Diferencial_cold(bar)	Diferencial_hot(bar)	mdot_hot(kg/s)	ABS_cold(bar)	ABS_hot(bar)	q_cold(kW)	q_hot(kW)	ASFASYFY	Tau_cold_haste	Re_hot	Re_cold	U_global	PSIG_cold(bar)	R_fouling	PSIG_hot(bar)	PSID_hot(bar)	m_dot_hot	PSID_cold(bar)	m_dot_cold
1.74835  	0.00000  	0.00000  	0.00000  	0.00000  	-1.18512  	-0.20833  	-0.86278  	-2.50000  	-3.02442  	-1.25000  	-0.08628  	-0.00000  	-0.00000  	-737.84722  	-254.63905  	-9234.48090  	-3618.55272  	0.00000  	0.00000  	0.00000  	0.00000  	0.00000  	0.00000  	0.00000  
2.75164  	29.56731  	49.66831  	49.52294  	37.63362  	-1.18512  	0.01888  	0.36378  	0.35233  	-3.02442  	0.06291  	-0.08578  	-102.00913  	-0.72063  	103.98674  	107.36604  	-21747.84093  	-11410.10356  	0.00456  	0.00002  	0.00420  	0.00436  	0.00565  	0.00000  	0.00000  
3.75296  	29.56988  	49.66726  	49.52145  	37.62669  	-1.18512  	0.01869  	0.36542  	0.35185  	-3.02442  	0.06158  	-0.08570  	-101.88892  	-0.72280  	103.84332  	107.84905  	-21746.86743  	-11409.86622  	0.00456  	0.00003  	0.00420  	0.00436  	0.00566  	0.00000  	0.00000  
4.75630  	29.57301  	49.66645  	49.52042  	37.61922  	-1.18512  	0.01707  	0.36614  	0.35189  	-3.02442  	0.06042  	-0.08565  	-101.75492  	-0.72390  	103.85607  	108.06190  	-21745.90050  	-11409.69542  	0.00456  	0.00003  	0.00419  	0.00433  	0.00566  	0.00000  	0.00000  
5.75962  	29.57602  	49.66602  	49.51994  	37.61220  	-1.18512  	0.01675  	0.36431  	0.35248  	-3.02442  	0.06208  	-0.08571  	-101.62810  	-0.72410  	104.03038  	107.52240  	-21745.00700  	-11409.61041  	0.00456  	0.00003  	0.00420  	0.00432  	0.00565  	0.00000  	0.00000  
6.76094  	29.57803  	49.66604  	49.51891  	37.60439  	-1.18512  	0.01772  	0.36265  	0.34611  	-3.02442  	0.06301  	-0.08581  	-101.50387  	-0.72935  	102.14922  	107.03141  	-21743.71396  	-11409.51631  	0.00455  	0.00002  	0.00420  	0.00434  	0.00565  	0.00000  	0.00000  
7.76423  	29.57948  	49.66456  	49.51759  	37.59511  	-1.18512  	0.01718  	0.36056  	0.34360  	-3.02442  	0.06176  	-0.08576  	-101.36821  	-0.72852  	101.40992  	106.41499  	-21741.96811  	-11409.25448  	0.00455  	0.00002  	0.00420  	0.00433  	0.00564  	0.00000  	0.00000  
8.76755  	29.58190  	49.66423  	49.51621  	37.58720  	-1.18512  	0.01721  	0.35887  	0.34656  	-3.02442  	0.06292  	-0.08569  	-101.23748  	-0.73375  	102.28436  	105.91541  	-21740.74402  	-11409.09460  	0.00455  	0.00003  	0.00420  	0.00433  	0.00563  	0.00000  	0.00000  
9.77086  	29.58405  	49.66337  	49.51542  	37.58096  	-1.18512  	0.01657  	0.35669  	0.34680  	-3.02442  	0.06261  	-0.08570  	-101.13148  	-0.73340  	102.35416  	105.27180  	-21739.83279  	-11408.94151  	0.00455  	0.00003  	0.00420  	0.00432  	0.00562  	0.00000  	0.00000  
10.77221  	29.58616  	49.66220  	49.51535  	37.57519  	-1.18512  	0.01685  	0.35406  	0.34196  	-3.02442  	0.06085  	-0.08569  	-101.03182  	-0.72799  	100.92573  	104.49582  	-21739.01581  	-11408.82573  	0.00455  	0.00003  	0.00419  	0.00432  	0.00561  	0.00000  	0.00000  
11.77553  	29.58620  	49.66222  	49.51477  	37.56824  	-1.18512  	0.01699  	0.35132  	0.34422  	-3.02442  	0.06266  	-0.08572  	-100.94334  	-0.73094  	101.59278  	103.68697  	-21737.47462  	-11408.77307  	0.00455  	0.00003  	0.00420  	0.00433  	0.00559  	0.00000  	0.00000  
12.77881  	29.58805  	49.66210  	49.51334  	37.56337  	-1.18512  	0.01648  	0.34935  	0.33752  	-3.02442  	0.06158  	-0.08570  	-100.85833  	-0.73738  	99.61394  	103.10628  	-21736.80248  	-11408.62884  	0.00454  	0.00003  	0.00420  	0.00432  	0.00558  	0.00000  	0.00000  
13.78014  	29.58906  	49.66150  	49.51343  	37.56084  	-1.18512  	0.01706  	0.34698  	0.33469  	-3.02442  	0.06179  	-0.08570  	-100.81365  	-0.73400  	98.78111  	102.40705  	-21736.46368  	-11408.58183  	0.00454  	0.00003  	0.00420  	0.00433  	0.00557  	0.00000  	0.00000  
14.78345  	29.59072  	49.66102  	49.51336  	37.55894  	-1.18512  	0.01722  	0.34406  	0.33252  	-3.02442  	0.06339  	-0.08577  	-100.76860  	-0.73196  	98.14001  	101.54682  	-21736.41128  	-11408.53079  	0.00453  	0.00002  	0.00420  	0.00433  	0.00556  	0.00000  	0.00000  
15.78677  	29.59179  	49.66042  	49.51214  	37.55930  	-1.18512  	0.01678  	0.34166  	0.32732  	-3.02442  	0.06057  	-0.08568  	-100.75966  	-0.73503  	96.60520  	100.83612  	-21736.72922  	-11408.36061  	0.00452  	0.00003  	0.00419  	0.00432  	0.00555  	0.00000  	0.00000  
16.78812  	29.59292  	49.65986  	49.51215  	37.55929  	-1.18512  	0.01647  	0.34050  	0.32815  	-3.02442  	0.06264  	-0.08577  	-100.74521  	-0.73222  	96.84867  	100.49548  	-21736.97754  	-11408.30882  	0.00453  	0.00002  	0.00420  	0.00432  	0.00554  	0.00000  	0.00000  
17.79143  	29.59430  	49.65980  	49.51210  	37.56066  	-1.18512  	0.01660  	0.33649  	0.32154  	-3.02442  	0.06277  	-0.08571  	-100.74507  	-0.73214  	94.89960  	99.31179  	-21737.59326  	-11408.29869  	0.00451  	0.00003  	0.00420  	0.00432  	0.00553  	0.00000  	0.00000  
18.79472  	29.59483  	49.65930  	49.51173  	37.56356  	-1.18512  	0.01733  	0.33570  	0.32433  	-3.02442  	0.06278  	-0.08572  	-100.77507  	-0.73151  	95.72146  	99.07713  	-21738.35465  	-11408.21749  	0.00452  	0.00003  	0.00420  	0.00433  	0.00552  	0.00000  	0.00000  
19.79604  	29.59521  	49.65930  	49.51194  	37.56740  	-1.18512  	0.01637  	0.33213  	0.32256  	-3.02442  	0.06248  	-0.08562  	-100.81870  	-0.73048  	95.19954  	98.02584  	-21739.29658  	-11408.23778  	0.00452  	0.00003  	0.00420  	0.00431  	0.00551  	0.00000  	0.00000  
20.79936  	29.59721  	49.65885  	49.51286  	37.57236  	-1.18512  	0.01678  	0.33025  	0.31670  	-3.02442  	0.06035  	-0.08573  	-100.85621  	-0.72370  	93.46972  	97.47042  	-21740.84787  	-11408.28171  	0.00451  	0.00003  	0.00419  	0.00432  	0.00550  	0.00000  	0.00000  
21.80270  	29.59810  	49.65873  	49.51227  	37.57861  	-1.18512  	0.01608  	0.32709  	0.31298  	-3.02442  	0.06161  	-0.08566  	-100.92408  	-0.72605  	92.37370  	96.53714  	-21742.44096  	-11408.21504  	0.00450  	0.00003  	0.00420  	0.00431  	0.00548  	0.00000  	0.00000  
22.80400  	29.59937  	49.65898  	49.51228  	37.58543  	-1.18512  	0.01647  	0.32426  	0.31164  	-3.02442  	0.06185  	-0.08568  	-100.99417  	-0.72720  	91.97840  	95.70141  	-21744.24391  	-11408.23897  	0.00450  	0.00003  	0.00420  	0.00432  	0.00547  	0.00000  	0.00000  
23.80731  	29.60013  	49.65880  	49.51387  	37.59424  	-1.18512  	0.01602  	0.32111  	0.30962  	-3.02442  	0.06170  	-0.08563  	-101.09598  	-0.71845  	91.38169  	94.77138  	-21746.37789  	-11408.37104  	0.00450  	0.00003  	0.00420  	0.00431  	0.00545  	0.00000  	0.00000  
24.81063  	29.60100  	49.65979  	49.51374  	37.60345  	-1.18512  	0.01696  	0.32175  	0.30514  	-3.02442  	0.06104  	-0.08572  	-101.20148  	-0.72394  	90.05885  	94.96140  	-21748.62468  	-11408.45061  	0.00449  	0.00003  	0.00420  	0.00433  	0.00546  	0.00000  	0.00000  
25.81195  	29.60188  	49.66017  	49.51411  	37.61226  	-1.18512  	0.01712  	0.32398  	0.30878  	-3.02442  	0.06438  	-0.08571  	-101.30181  	-0.72406  	91.13401  	95.61996  	-21750.78764  	-11408.52091  	0.00449  	0.00003  	0.00421  	0.00433  	0.00547  	0.00000  	0.00000  
26.81527  	29.60302  	49.65995  	49.51452  	37.62153  	-1.18512  	0.01644  	0.32888  	0.31286  	-3.02442  	0.06262  	-0.08571  	-101.40457  	-0.72092  	92.33681  	97.06642  	-21753.10954  	-11408.53862  	0.00450  	0.00003  	0.00420  	0.00432  	0.00549  	0.00000  	0.00000  
27.81858  	29.60528  	49.66063  	49.51527  	37.63325  	-1.18512  	0.01631  	0.33312  	0.32007  	-3.02442  	0.06172  	-0.08568  	-101.52427  	-0.72057  	94.46641  	98.31800  	-21756.22686  	-11408.67149  	0.00451  	0.00003  	0.00420  	0.00431  	0.00551  	0.00000  	0.00000  
28.82190  	29.60801  	49.66021  	49.51520  	37.64254  	-1.18512  	0.01710  	0.33794  	0.32477  	-3.02442  	0.06342  	-0.08568  	-101.60718  	-0.71885  	95.85322  	99.74037  	-21758.90884  	-11408.62601  	0.00452  	0.00003  	0.00420  	0.00433  	0.00553  	0.00000  	0.00000  
29.82322  	29.60995  	49.66021  	49.51576  	37.65056  	-1.18512  	0.01816  	0.34182  	0.32792  	-3.02442  	0.06237  	-0.08569  	-101.68407  	-0.71607  	96.78065  	100.88547  	-21761.12749  	-11408.67778  	0.00452  	0.00003  	0.00420  	0.00435  	0.00555  	0.00000  	0.00000  
30.82654  	29.61196  	49.66148  	49.51688  	37.65658  	-1.18512  	0.01814  	0.34591  	0.33199  	-3.02442  	0.06103  	-0.08569  	-101.73472  	-0.71679  	97.98401  	102.09178  	-21762.91919  	-11408.90155  	0.00453  	0.00003  	0.00420  	0.00435  	0.00557  	0.00000  	0.00000  
31.82985  	29.61540  	49.66124  	49.51618  	37.66053  	-1.18512  	0.01791  	0.34892  	0.33546  	-3.02442  	0.06272  	-0.08568  	-101.74121  	-0.71905  	99.00688  	102.97895  	-21764.56784  	-11408.81321  	0.00454  	0.00003  	0.00420  	0.00434  	0.00558  	0.00000  	0.00000  
32.83117  	29.61899  	49.66196  	49.51685  	37.66319  	-1.18512  	0.01799  	0.35439  	0.33758  	-3.02442  	0.06254  	-0.08570  	-101.72937  	-0.71933  	99.63354  	104.59403  	-21765.96184  	-11408.94315  	0.00454  	0.00003  	0.00420  	0.00435  	0.00561  	0.00000  	0.00000  
33.83449  	29.62083  	49.66258  	49.51725  	37.66448  	-1.18512  	0.01869  	0.35633  	0.34515  	-3.02442  	0.06109  	-0.08577  	-101.72246  	-0.72041  	101.86805  	105.16710  	-21766.66031  	-11409.03849  	0.00455  	0.00002  	0.00420  	0.00436  	0.00562  	0.00000  	0.00000  
34.83781  	29.62364  	49.66243  	49.51791  	37.66321  	-1.18512  	0.01681  	0.35844  	0.34568  	-3.02442  	0.06107  	-0.08570  	-101.67088  	-0.71644  	102.02326  	105.78934  	-21767.00317  	-11409.08595  	0.00455  	0.00003  	0.00420  	0.00432  	0.00563  	0.00000  	0.00000  
35.83913  	29.62680  	49.66390  	49.51843  	37.65979  	-1.18512  	0.01865  	0.36113  	0.34883  	-3.02442  	0.06123  	-0.08566  	-101.58760  	-0.72115  	102.95429  	106.58292  	-21766.94524  	-11409.27152  	0.00456  	0.00003  	0.00420  	0.00436  	0.00564  	0.00000  	0.00000  
36.84244  	29.62914  	49.66440  	49.51856  	37.65583  	-1.18512  	0.01642  	0.36220  	0.34782  	-3.02442  	0.05953  	-0.08562  	-101.50803  	-0.72297  	102.65497  	106.89813  	-21766.58216  	-11409.33053  	0.00456  	0.00003  	0.00419  	0.00432  	0.00564  	0.00000  	0.00000  
37.84576  	29.63130  	49.66499  	49.51833  	37.65143  	-1.18512  	0.01703  	0.36394  	0.34864  	-3.02442  	0.06032  	-0.08567  	-101.42509  	-0.72702  	102.89734  	107.41205  	-21766.08456  	-11409.36401  	0.00456  	0.00003  	0.00419  	0.00433  	0.00565  	0.00000  	0.00000  
38.84611  	29.63343  	49.66612  	49.51869  	37.64414  	-1.18512  	0.01766  	0.36589  	0.34804  	-3.02442  	0.06163  	-0.08571  	-101.30590  	-0.73081  	102.72090  	107.98968  	-21764.93289  	-11409.50222  	0.00456  	0.00003  	0.00420  	0.00434  	0.00566  	0.00000  	0.00000  
39.84940  	29.63586  	49.66660  	49.51862  	37.63692  	-1.18512  	0.01796  	0.36529  	0.35225  	-3.02442  	0.06040  	-0.08570  	-101.18385  	-0.73357  	103.96161  	107.81241  	-21763.86373  	-11409.54113  	0.00456  	0.00003  	0.00419  	0.00434  	0.00566  	0.00000  	0.00000  
40.85272  	29.63811  	49.66689  	49.52005  	37.62941  	-1.18512  	0.01787  	0.36479  	0.35002  	-3.02442  	0.06116  	-0.08572  	-101.06043  	-0.72789  	103.30550  	107.66392  	-21762.69141  	-11409.70164  	0.00456  	0.00003  	0.00420  	0.00434  	0.00566  	0.00000  	0.00000  
41.85404  	29.63934  	49.66703  	49.52036  	37.62133  	-1.18512  	0.01786  	0.36191  	0.35412  	-3.02442  	0.06094  	-0.08566  	-100.94272  	-0.72706  	104.51321  	106.81459  	-21761.16403  	-11409.74408  	0.00457  	0.00003  	0.00420  	0.00434  	0.00564  	0.00000  	0.00000  
42.85735  	29.63973  	49.66901  	49.52087  	37.61319  	-1.18512  	0.01751  	0.35973  	0.34590  	-3.02442  	0.06315  	-0.08572  	-100.83492  	-0.73435  	102.08719  	106.17114  	-21759.43514  	-11409.97651  	0.00455  	0.00003  	0.00420  	0.00434  	0.00563  	0.00000  	0.00000  
43.86067  	29.64149  	49.67057  	49.52133  	37.60487  	-1.18512  	0.01684  	0.35831  	0.34387  	-3.02442  	0.05991  	-0.08571  	-100.70742  	-0.73978  	101.49018  	105.75115  	-21757.97246  	-11410.16432  	0.00455  	0.00003  	0.00419  	0.00432  	0.00563  	0.00000  	0.00000  
44.86199  	29.64234  	49.66976  	49.52148  	37.59885  	-1.18512  	0.01707  	0.35637  	0.34125  	-3.02442  	0.05992  	-0.08565  	-100.62049  	-0.73503  	100.71481  	105.17790  	-21756.82020  	-11410.10325  	0.00455  	0.00003  	0.00419  	0.00433  	0.00562  	0.00000  	0.00000  
45.86531  	29.64291  	49.67093  	49.52314  	37.59339  	-1.18512  	0.01802  	0.35421  	0.34098  	-3.02442  	0.06145  	-0.08561  	-100.54428  	-0.73258  	100.63772  	104.54067  	-21755.73017  	-11410.36647  	0.00455  	0.00003  	0.00420  	0.00435  	0.00561  	0.00000  	0.00000  
46.86764  	29.64460  	49.67196  	49.52375  	37.58872  	-1.18512  	0.01744  	0.35207  	0.34149  	-3.02442  	0.06173  	-0.08570  	-100.46385  	-0.73469  	100.78683  	103.90828  	-21755.06471  	-11410.51909  	0.00455  	0.00003  	0.00420  	0.00433  	0.00560  	0.00000  	0.00000  
47.86895  	29.64455  	49.67268  	49.52392  	37.58487  	-1.18512  	0.01816  	0.34950  	0.33524  	-3.02442  	0.06062  	-0.08566  	-100.41573  	-0.73740  	98.94309  	103.15004  	-21754.19604  	-11410.60234  	0.00454  	0.00003  	0.00419  	0.00435  	0.00559  	0.00000  	0.00000  
48.87129  	29.64548  	49.67357  	49.52471  	37.58292  	-1.18512  	0.01691  	0.34753  	0.33279  	-3.02442  	0.06114  	-0.08570  	-100.37932  	-0.73794  	98.22049  	102.56822  	-21753.96581  	-11410.75969  	0.00453  	0.00003  	0.00420  	0.00432  	0.00558  	0.00000  	0.00000  
49.87458  	29.64621  	49.67448  	49.52602  	37.58185  	-1.18512  	0.01802  	0.34336  	0.32584  	-3.02442  	0.06247  	-0.08566  	-100.35652  	-0.73591  	96.16838  	101.33963  	-21753.89128  	-11410.96656  	0.00452  	0.00003  	0.00420  	0.00435  	0.00556  	0.00000  	0.00000  
50.87790  	29.64653  	49.67524  	49.52781  	37.58198  	-1.18512  	0.01736  	0.34173  	0.32998  	-3.02442  	0.06109  	-0.08575  	-100.35418  	-0.73087  	97.39133  	100.85908  	-21753.99269  	-11411.20421  	0.00453  	0.00002  	0.00420  	0.00433  	0.00555  	0.00000  	0.00000  
51.87922  	29.64680  	49.67640  	49.52835  	37.58321  	-1.18512  	0.01868  	0.33969  	0.32728  	-3.02442  	0.06180  	-0.08574  	-100.36635  	-0.73387  	96.59176  	100.25625  	-21754.32704  	-11411.36319  	0.00452  	0.00002  	0.00420  	0.00436  	0.00554  	0.00000  	0.00000  
52.88253  	29.64742  	49.67771  	49.52866  	37.58563  	-1.18512  	0.01721  	0.33710  	0.32572  	-3.02442  	0.06267  	-0.08575  	-100.38909  	-0.73888  	96.13314  	99.49160  	-21755.00522  	-11411.51439  	0.00452  	0.00002  	0.00420  	0.00433  	0.00553  	0.00000  	0.00000  
53.88588  	29.64871  	49.67865  	49.53051  	37.58832  	-1.18512  	0.01617  	0.33428  	0.31888  	-3.02442  	0.06303  	-0.08568  	-100.40687  	-0.73434  	94.11333  	98.65877  	-21755.89183  	-11411.77431  	0.00451  	0.00003  	0.00420  	0.00431  	0.00552  	0.00000  	0.00000  
54.88720  	29.64933  	49.67908  	49.53182  	37.59289  	-1.18512  	0.01699  	0.33143  	0.31944  	-3.02442  	0.06105  	-0.08570  	-100.45666  	-0.72999  	94.27851  	97.81857  	-21757.04887  	-11411.93719  	0.00451  	0.00003  	0.00420  	0.00433  	0.00550  	0.00000  	0.00000  
55.89051  	29.64896  	49.67980  	49.53251  	37.60005  	-1.18512  	0.01602  	0.32855  	0.31432  	-3.02442  	0.06287  	-0.08573  	-100.55191  	-0.73014  	92.76927  	96.96724  	-21758.56430  	-11412.06742  	0.00450  	0.00003  	0.00420  	0.00431  	0.00549  	0.00000  	0.00000  
56.89383  	29.64970  	49.68110  	49.53443  	37.60649  	-1.18512  	0.01711  	0.32705  	0.31007  	-3.02442  	0.06335  	-0.08574  	-100.62406  	-0.72709  	91.51264  	96.52584  	-21760.16632  	-11412.36829  	0.00450  	0.00002  	0.00420  	0.00433  	0.00548  	0.00000  	0.00000  
57.89515  	29.65044  	49.68287  	49.53555  	37.61344  	-1.18512  	0.01617  	0.32339  	0.31156  	-3.02442  	0.06142  	-0.08566  	-100.70258  	-0.73030  	91.95239  	95.44611  	-21761.88103  	-11412.63774  	0.00450  	0.00003  	0.00420  	0.00431  	0.00547  	0.00000  	0.00000  
58.89844  	29.65118  	49.68336  	49.53586  	37.62149  	-1.18512  	0.01612  	0.32126  	0.30813  	-3.02442  	0.06235  	-0.08569  	-100.79506  	-0.73117  	90.93979  	94.81645  	-21763.84040  	-11412.71180  	0.00449  	0.00003  	0.00420  	0.00431  	0.00546  	0.00000  	0.00000  
59.90176  	29.65116  	49.68334  	49.53704  	37.63206  	-1.18512  	0.01623  	0.31935  	0.30243  	-3.02442  	0.06186  	-0.08572  	-100.92898  	-0.72519  	89.25864  	94.25240  	-21766.19201  	-11412.82085  	0.00448  	0.00003  	0.00420  	0.00431  	0.00545  	0.00000  	0.00000  
60.90211  	29.65221  	49.68452  	49.53910  	37.64212  	-1.18512  	0.01643  	0.32190  	0.30770  	-3.02442  	0.06240  	-0.08572  	-101.04289  	-0.72089  	90.81550  	95.00661  	-21768.67015  	-11413.12290  	0.00449  	0.00003  	0.00420  	0.00432  	0.00546  	0.00000  	0.00000  
61.90543  	29.65322  	49.68610  	49.54056  	37.65205  	-1.18512  	0.01553  	0.32579  	0.31023  	-3.02442  	0.06228  	-0.08570  	-101.15568  	-0.72146  	91.56107  	96.15387  	-21771.11001  	-11413.40698  	0.00450  	0.00003  	0.00420  	0.00430  	0.00548  	0.00000  	0.00000  
62.90871  	29.65410  	49.68686  	49.54177  	37.66338  	-1.18512  	0.01736  	0.32999  	0.31678  	-3.02442  	0.06181  	-0.08570  	-101.28786  	-0.71924  	93.49546  	97.39432  	-21773.83428  	-11413.58984  	0.00451  	0.00003  	0.00420  	0.00433  	0.00550  	0.00000  	0.00000  
63.91004  	29.65557  	49.68845  	49.54304  	37.67605  	-1.18512  	0.01591  	0.33381  	0.32586  	-3.02442  	0.06157  	-0.08571  	-101.42944  	-0.72081  	96.17457  	98.52047  	-21776.98807  	-11413.85761  	0.00452  	0.00003  	0.00420  	0.00431  	0.00551  	0.00000  	0.00000  
64.91236  	29.65800  	49.68958  	49.54527  	37.68385  	-1.18512  	0.01713  	0.33884  	0.32553  	-3.02442  	0.06166  	-0.08570  	-101.49736  	-0.71538  	96.07643  	100.00451  	-21779.26949  	-11414.17012  	0.00452  	0.00003  	0.00420  	0.00433  	0.00554  	0.00000  	0.00000  
65.91570  	29.65969  	49.69136  	49.54626  	37.69094  	-1.18512  	0.01632  	0.34252  	0.32985  	-3.02442  	0.06019  	-0.08565  	-101.56580  	-0.71929  	97.35058  	101.09015  	-21781.22932  	-11414.42846  	0.00453  	0.00003  	0.00419  	0.00431  	0.00555  	0.00000  	0.00000  
66.91599  	29.66107  	49.69353  	49.54687  	37.69754  	-1.18512  	0.01732  	0.34689  	0.32979  	-3.02442  	0.06158  	-0.08572  	-101.63163  	-0.72700  	97.33514  	102.38194  	-21783.00992  	-11414.68810  	0.00453  	0.00003  	0.00420  	0.00433  	0.00557  	0.00000  	0.00000  
67.91934  	29.66383  	49.69405  	49.54876  	37.70205  	-1.18512  	0.01774  	0.35039  	0.34076  	-3.02442  	0.06277  	-0.08567  	-101.65378  	-0.72022  	100.57135  	103.41279  	-21784.63057  	-11414.91415  	0.00455  	0.00003  	0.00420  	0.00434  	0.00559  	0.00000  	0.00000  
68.92263  	29.66621  	49.69618  	49.55019  	37.70368  	-1.18512  	0.01814  	0.35312  	0.34013  	-3.02442  	0.06249  	-0.08573  	-101.64437  	-0.72372  	100.38550  	104.22049  	-21785.52457  	-11415.24544  	0.00454  	0.00003  	0.00420  	0.00435  	0.00560  	0.00000  	0.00000  
69.92298  	29.66855  	49.69702  	49.55070  	37.70365  	-1.18512  	0.01708  	0.35578  	0.34105  	-3.02442  	0.06198  	-0.08568  	-101.61437  	-0.72531  	100.65579  	105.00530  	-21786.04263  	-11415.37187  	0.00455  	0.00003  	0.00420  	0.00433  	0.00561  	0.00000  	0.00000  
70.92627  	29.67101  	49.69785  	49.55171  	37.70316  	-1.18512  	0.01784  	0.36042  	0.34888  	-3.02442  	0.06115  	-0.08565  	-101.57707  	-0.72447  	102.96739  	106.37434  	-21786.48218  	-11415.54280  	0.00456  	0.00003  	0.00420  	0.00434  	0.00564  	0.00000  	0.00000  
71.92958  	29.67243  	49.69914  	49.55314  	37.69924  	-1.18512  	0.01864  	0.36207  	0.34870  	-3.02442  	0.06076  	-0.08572  	-101.50965  	-0.72373  	102.91597  	106.85954  	-21785.92297  	-11415.79596  	0.00456  	0.00003  	0.00419  	0.00436  	0.00564  	0.00000  	0.00000  
72.93290  	29.67501  	49.70148  	49.55534  	37.69559  	-1.18512  	0.01754  	0.36401  	0.34903  	-3.02442  	0.06171  	-0.08568  	-101.43076  	-0.72445  	103.01250  	107.43498  	-21785.68265  	-11416.22092  	0.00456  	0.00003  	0.00420  	0.00434  	0.00565  	0.00000  	0.00000  
73.93422  	29.67670  	49.70282  	49.55620  	37.68911  	-1.18512  	0.01753  	0.36520  	0.35097  	-3.02442  	0.06056  	-0.08572  	-101.32755  	-0.72682  	103.58535  	107.78461  	-21784.61583  	-11416.42553  	0.00456  	0.00003  	0.00419  	0.00434  	0.00566  	0.00000  	0.00000  
74.93754  	29.67825  	49.70433  	49.55668  	37.68168  	-1.18512  	0.01824  	0.36476  	0.34972  	-3.02442  	0.06234  	-0.08570  	-101.21378  	-0.73192  	103.21655  	107.65594  	-21783.30469  	-11416.61187  	0.00456  	0.00003  	0.00420  	0.00435  	0.00566  	0.00000  	0.00000  
75.94085  	29.67969  	49.70546  	49.55765  	37.67376  	-1.18512  	0.01801  	0.36243  	0.34670  	-3.02442  	0.06177  	-0.08569  	-101.09552  	-0.73271  	102.32457  	106.96683  	-21781.85698  	-11416.80794  	0.00455  	0.00003  	0.00420  	0.00435  	0.00564  	0.00000  	0.00000  
76.94217  	29.68119  	49.70642  	49.55888  	37.66639  	-1.18512  	0.01800  	0.36288  	0.34507  	-3.02442  	0.06188  	-0.08569  	-100.98336  	-0.73136  	101.84372  	107.10084  	-21780.54797  	-11417.01145  	0.00455  	0.00003  	0.00420  	0.00435  	0.00565  	0.00000  	0.00000  
77.94549  	29.68191  	49.70762  	49.55895  	37.65879  	-1.18512  	0.01814  	0.36013  	0.34305  	-3.02442  	0.05985  	-0.08569  	-100.87810  	-0.73698  	101.24767  	106.28857  	-21779.01382  	-11417.12969  	0.00455  	0.00003  	0.00419  	0.00435  	0.00563  	0.00000  	0.00000  
78.94883  	29.68330  	49.70876  	49.56073  	37.65143  	-1.18512  	0.01823  	0.35788  	0.34404  	-3.02442  	0.06158  	-0.08574  	-100.76739  	-0.73380  	101.54097  	105.62286  	-21777.68206  	-11417.40326  	0.00455  	0.00003  	0.00420  	0.00435  	0.00562  	0.00000  	0.00000  
79.95016  	29.68422  	49.70982  	49.56107  	37.64471  	-1.18512  	0.01803  	0.35468  	0.33866  	-3.02442  	0.06111  	-0.08563  	-100.67076  	-0.73735  	99.95048  	104.67918  	-21776.38858  	-11417.53312  	0.00454  	0.00003  	0.00420  	0.00435  	0.00561  	0.00000  	0.00000  
80.95344  	29.68379  	49.71191  	49.56303  	37.63857  	-1.18512  	0.01768  	0.35289  	0.33520  	-3.02442  	0.06118  	-0.08566  	-100.59861  	-0.73798  	98.92981  	104.15204  	-21774.92528  	-11417.91109  	0.00454  	0.00003  	0.00420  	0.00434  	0.00560  	0.00000  	0.00000  
81.95676  	29.68381  	49.71295  	49.56484  	37.63434  	-1.18512  	0.01719  	0.35032  	0.33580  	-3.02442  	0.06032  	-0.08562  	-100.54490  	-0.73419  	99.10735  	103.39181  	-21773.98534  	-11418.17599  	0.00454  	0.00003  	0.00419  	0.00433  	0.00559  	0.00000  	0.00000  
82.95811  	29.68429  	49.71455  	49.56504  	37.63086  	-1.18512  	0.01727  	0.34788  	0.33310  	-3.02442  	0.06083  	-0.08570  	-100.49475  	-0.74115  	98.31064  	102.67146  	-21773.31565  	-11418.34422  	0.00453  	0.00003  	0.00419  	0.00433  	0.00558  	0.00000  	0.00000  
83.96043  	29.68397  	49.71548  	49.56660  	37.62915  	-1.18512  	0.01687  	0.34512  	0.33333  	-3.02442  	0.06300  	-0.08568  	-100.47722  	-0.73800  	98.37846  	101.85902  	-21772.86223  	-11418.57764  	0.00453  	0.00003  	0.00420  	0.00432  	0.00557  	0.00000  	0.00000  
84.96372  	29.68475  	49.71727  	49.56860  	37.62740  	-1.18512  	0.01581  	0.34248  	0.33106  	-3.02442  	0.06289  	-0.08572  	-100.44527  	-0.73699  	97.70776  	101.07937  	-21772.64620  	-11418.93019  	0.00453  	0.00003  	0.00420  	0.00430  	0.00555  	0.00000  	0.00000  
85.96504  	29.68613  	49.71894  	49.56978  	37.62694  	-1.18512  	0.01747  	0.33816  	0.32421  	-3.02442  	0.06102  	-0.08569  	-100.42188  	-0.73940  	95.68705  	99.80449  	-21772.85174  	-11419.19726  	0.00452  	0.00003  	0.00420  	0.00434  	0.00553  	0.00000  	0.00000  
86.96835  	29.68596  	49.72078  	49.57154  	37.62905  	-1.18512  	0.01703  	0.33547  	0.31995  	-3.02442  	0.06091  	-0.08572  	-100.45082  	-0.73977  	94.43023  	99.01164  	-21773.28451  	-11419.53249  	0.00451  	0.00003  	0.00419  	0.00433  	0.00552  	0.00000  	0.00000  
87.97167  	29.68632  	49.72156  	49.57344  	37.63192  	-1.18512  	0.01707  	0.33327  	0.31465  	-3.02442  	0.06410  	-0.08573  	-100.48251  	-0.73423  	92.86620  	98.36193  	-21774.00285  	-11419.78261  	0.00450  	0.00003  	0.00421  	0.00433  	0.00551  	0.00000  	0.00000  
88.97299  	29.68499  	49.72271  	49.57523  	37.63570  	-1.18512  	0.01669  	0.32803  	0.31285  	-3.02442  	0.06108  	-0.08563  	-100.54718  	-0.73108  	92.33504  	96.81360  	-21774.55212  	-11420.05691  	0.00450  	0.00003  	0.00420  	0.00432  	0.00549  	0.00000  	0.00000  
89.97633  	29.68605  	49.72428  	49.57598  	37.64137  	-1.18512  	0.01694  	0.32667  	0.31316  	-3.02442  	0.06126  	-0.08564  	-100.60551  	-0.73514  	92.42519  	96.41280  	-21776.05117  	-11420.27280  	0.00450  	0.00003  	0.00420  	0.00433  	0.00548  	0.00000  	0.00000  
90.97865  	29.68572  	49.72627  	49.57735  	37.64936  	-1.18512  	0.01556  	0.32331  	0.31108  	-3.02442  	0.05915  	-0.08570  	-100.71066  	-0.73822  	91.81104  	95.42273  	-21777.76261  	-11420.58717  	0.00450  	0.00003  	0.00419  	0.00430  	0.00546  	0.00000  	0.00000  
91.97995  	29.68594  	49.72743  	49.57910  	37.65776  	-1.18512  	0.01650  	0.32294  	0.30694  	-3.02442  	0.06176  	-0.08569  	-100.81412  	-0.73528  	90.58973  	95.31355  	-21779.68386  	-11420.85779  	0.00449  	0.00003  	0.00420  	0.00432  	0.00546  	0.00000  	0.00000  
92.98326  	29.68630  	49.72837  	49.58129  	37.66504  	-1.18512  	0.01655  	0.32016  	0.30308  	-3.02442  	0.06057  	-0.08574  	-100.90165  	-0.72909  	89.45096  	94.49091  	-21781.38826  	-11421.14972  	0.00448  	0.00003  	0.00419  	0.00432  	0.00545  	0.00000  	0.00000  
93.98658  	29.68686  	49.73007  	49.58358  	37.67481  	-1.18512  	0.01664  	0.32210  	0.30803  	-3.02442  	0.06057  	-0.08565  	-101.01804  	-0.72618  	90.91113  	95.06463  	-21783.69301  	-11421.52253  	0.00449  	0.00003  	0.00419  	0.00432  	0.00546  	0.00000  	0.00000  
94.98890  	29.68659  	49.73255  	49.58509  	37.68593  	-1.18512  	0.01629  	0.32522  	0.31298  	-3.02442  	0.06106  	-0.08565  	-101.16213  	-0.73099  	92.37199  	95.98469  	-21786.11337  	-11421.89458  	0.00450  	0.00003  	0.00420  	0.00431  	0.00547  	0.00000  	0.00000  
95.98925  	29.68771  	49.73379  	49.58684  	37.69716  	-1.18512  	0.01621  	0.33076  	0.31555  	-3.02442  	0.06028  	-0.08572  	-101.28997  	-0.72847  	93.13235  	97.62046  	-21788.86933  	-11422.17431  	0.00450  	0.00003  	0.00419  	0.00431  	0.00550  	0.00000  	0.00000  
96.99254  	29.68869  	49.73495  	49.58905  	37.70691  	-1.18512  	0.01662  	0.33527  	0.32528  	-3.02442  	0.06163  	-0.08567  	-101.40094  	-0.72328  	96.00212  	98.95136  	-21791.26263  	-11422.48852  	0.00452  	0.00003  	0.00420  	0.00432  	0.00552  	0.00000  	0.00000  
97.99585  	29.69009  	49.73656  	49.59102  	37.71547  	-1.18512  	0.01551  	0.34026  	0.32428  	-3.02442  	0.06195  	-0.08567  	-101.49148  	-0.72145  	95.70847  	100.42378  	-21793.48265  	-11422.82264  	0.00452  	0.00003  	0.00420  	0.00430  	0.00554  	0.00000  	0.00000  
98.99720  	29.69236  	49.73828  	49.59122  	37.72388  	-1.18512  	0.01676  	0.34329  	0.33011  	-3.02442  	0.06096  	-0.08575  	-101.56909  	-0.72903  	97.42916  	101.31675  	-21795.86618  	-11423.00134  	0.00453  	0.00002  	0.00420  	0.00432  	0.00556  	0.00000  	0.00000  
100.00049  	29.69498  	49.73964  	49.59312  	37.72954  	-1.18512  	0.01678  	0.34644  	0.33553  	-3.02442  	0.06262  	-0.08564  	-101.60756  	-0.72635  	99.02888  	102.24703  	-21797.71267  	-11423.30583  	0.00454  	0.00003  	0.00420  	0.00432  	0.00557  	0.00000  	0.00000  
101.00384  	29.69683  	49.74132  	49.59461  	37.73330  	-1.18512  	0.01552  	0.35035  	0.33750  	-3.02442  	0.06203  	-0.08571  	-101.63169  	-0.72725  	99.61054  	103.40174  	-21798.96678  	-11423.60155  	0.00454  	0.00003  	0.00420  	0.00430  	0.00559  	0.00000  	0.00000  
102.00516  	29.69855  	49.74222  	49.59605  	37.73565  	-1.18512  	0.01627  	0.35456  	0.34127  	-3.02442  	0.06195  	-0.08564  	-101.63956  	-0.72457  	100.72104  	104.64407  	-21799.87396  	-11423.81985  	0.00455  	0.00003  	0.00420  	0.00431  	0.00561  	0.00000  	0.00000  
103.00748  	29.70095  	49.74563  	49.59665  	37.73562  	-1.18512  	0.01734  	0.35651  	0.34423  	-3.02442  	0.06147  	-0.08570  	-101.60893  	-0.73851  	101.59567  	105.22107  	-21800.40426  	-11424.19350  	0.00455  	0.00003  	0.00420  	0.00433  	0.00562  	0.00000  	0.00000  
104.01076  	29.70158  	49.74663  	49.59831  	37.73303  	-1.18512  	0.01795  	0.35990  	0.34425  	-3.02442  	0.06128  	-0.08563  	-101.56817  	-0.73524  	101.60159  	106.22057  	-21799.96453  	-11424.44239  	0.00455  	0.00003  	0.00420  	0.00434  	0.00563  	0.00000  	0.00000  
105.01211  	29.70403  	49.74815  	49.59966  	37.73010  	-1.18512  	0.01751  	0.36239  	0.34834  	-3.02442  	0.06072  	-0.08571  	-101.50019  	-0.73609  	102.80721  	106.95596  	-21799.85835  	-11424.71023  	0.00456  	0.00003  	0.00419  	0.00434  	0.00564  	0.00000  	0.00000  
106.01543  	29.70629  	49.74975  	49.60137  	37.72569  	-1.18512  	0.01789  	0.36429  	0.35425  	-3.02442  	0.06229  	-0.08571  	-101.41588  	-0.73551  	104.55358  	107.51729  	-21799.37737  	-11425.01922  	0.00457  	0.00003  	0.00420  	0.00434  	0.00565  	0.00000  	0.00000  
107.01875  	29.70822  	49.75142  	49.60317  	37.71952  	-1.18512  	0.01669  	0.36720  	0.35101  	-3.02442  	0.06226  	-0.08569  	-101.31333  	-0.73488  	103.59675  	108.37524  	-21798.43129  	-11425.34281  	0.00456  	0.00003  	0.00420  	0.00432  	0.00567  	0.00000  	0.00000  
108.02004  	29.70970  	49.75262  	49.60539  	37.71266  	-1.18512  	0.01692  	0.36418  	0.35293  	-3.02442  	0.06254  	-0.08566  	-101.20788  	-0.72984  	104.16476  	107.48425  	-21797.23294  	-11425.66255  	0.00456  	0.00003  	0.00420  	0.00432  	0.00565  	0.00000  	0.00000  
109.02336  	29.71098  	49.75426  	49.60649  	37.70545  	-1.18512  	0.01722  	0.36302  	0.35202  	-3.02442  	0.06025  	-0.08569  	-101.10055  	-0.73251  	103.89462  	107.13999  	-21795.90917  	-11425.91728  	0.00456  	0.00003  	0.00419  	0.00433  	0.00565  	0.00000  	0.00000  
110.02667  	29.71106  	49.75640  	49.60734  	37.69701  	-1.18512  	0.01789  	0.36121  	0.35113  	-3.02442  	0.06235  	-0.08569  	-100.99275  	-0.73893  	103.63312  	106.60669  	-21794.04414  	-11426.19629  	0.00456  	0.00003  	0.00420  	0.00434  	0.00564  	0.00000  	0.00000  
